PE UV       SUBTECH     SPECTRUM    ASCII       PEDS        4.00        
   -1
J33.Sample.Raw.asc
18/05/02
11:43:09.00
18/05/02
11:43:09.00
Administrator
longitudinal
325.000000
1
Lambda 850
850L1710193
PerkinElmer UV WinLab 6.4.0.973 / 2.02.06 Lambda 800 UV/VIS, Jan 28 2016 16:58:34

0
0
2
0
0
UV/VIS
1
1
1
RBeamAtt,SBeamAtt,60mm sphere
0
0
0
0
Fix
 
0
0.16
0
0
0
 
 
 
0
 
0
319.2
0
Front
100
 
S:100 R:100
 
0
0
0
 
0
 
 
 
0
 
 
0
0
0
0
0
 
 
 
 
0
0


0
0
#HDR
-1
-1
#GR
nm
%T
1.0
0.0
900.000000
-1.000000
576
8
79.292554
0.016840
#DATA
900.000000	75.794092
899.000000	75.253766
898.000000	70.960421
897.000000	75.298978
896.000000	75.563860
895.000000	69.216303
894.000000	72.430670
893.000000	77.336113
892.000000	73.387878
891.000000	75.489702
890.000000	71.461973
889.000000	78.288413
888.000000	76.975825
887.000000	74.081005
886.000000	79.292554
885.000000	72.992472
884.000000	74.688777
883.000000	74.419764
882.000000	76.649486
881.000000	75.385985
880.000000	70.621549
879.000000	73.448291
878.000000	75.093315
877.000000	72.291826
876.000000	75.757594
875.000000	75.244349
874.000000	73.051616
873.000000	72.871360
872.000000	72.718392
871.000000	76.579681
870.000000	74.486989
869.000000	74.303709
868.000000	72.970026
867.000000	73.393235
866.000000	73.991304
865.000000	74.365918
864.000000	74.894532
863.000000	74.578144
862.000000	73.719248
861.000000	74.001949
860.000000	73.408350
859.000000	73.841086
858.000000	73.937162
857.000000	73.618822
856.000000	74.151933
855.000000	73.965344
854.000000	73.696238
853.000000	73.561434
852.000000	73.624411
851.000000	73.607739
850.000000	73.704435
849.000000	73.255529
848.000000	73.201764
847.000000	73.001499
846.000000	73.193684
845.000000	73.641942
844.000000	73.373013
843.000000	73.143614
842.000000	73.191495
841.000000	73.307964
840.000000	73.251015
839.000000	72.985207
838.000000	72.730760
837.000000	72.832702
836.000000	72.963410
835.000000	73.272535
834.000000	72.752268
833.000000	72.594167
832.000000	72.642869
831.000000	72.877085
830.000000	72.687179
829.000000	72.597778
828.000000	72.487028
827.000000	72.561421
826.000000	72.432344
825.000000	72.505187
824.000000	72.480878
823.000000	72.397445
822.000000	72.444794
821.000000	72.590524
820.000000	72.576216
819.000000	72.339845
818.000000	72.456798
817.000000	72.320137
816.000000	72.330631
815.000000	72.312731
814.000000	72.460719
813.000000	72.379213
812.000000	72.342596
811.000000	72.143165
810.000000	72.020832
809.000000	72.132457
808.000000	72.250706
807.000000	72.222329
806.000000	72.243533
805.000000	72.213288
804.000000	72.115436
803.000000	72.220304
802.000000	72.277874
801.000000	72.261815
800.000000	72.080189
799.000000	72.074106
798.000000	72.293723
797.000000	72.043020
796.000000	71.943157
795.000000	72.188600
794.000000	72.066589
793.000000	72.178573
792.000000	72.272715
791.000000	72.199562
790.000000	72.061909
789.000000	72.010612
788.000000	72.084802
787.000000	72.104277
786.000000	72.034813
785.000000	71.844623
784.000000	71.781966
783.000000	71.747294
782.000000	71.871709
781.000000	71.913325
780.000000	71.817705
779.000000	71.741574
778.000000	71.863531
777.000000	71.987780
776.000000	71.839009
775.000000	71.863269
774.000000	72.033927
773.000000	71.983751
772.000000	71.802238
771.000000	71.761185
770.000000	71.770260
769.000000	71.861055
768.000000	71.889095
767.000000	71.782788
766.000000	71.750717
765.000000	71.833091
764.000000	71.676338
763.000000	71.576115
762.000000	71.643733
761.000000	71.602901
760.000000	71.667702
759.000000	71.690916
758.000000	71.643181
757.000000	71.626716
756.000000	71.660823
755.000000	71.548481
754.000000	71.515857
753.000000	71.501857
752.000000	71.488302
751.000000	71.576212
750.000000	71.557976
749.000000	71.494873
748.000000	71.512150
747.000000	71.478058
746.000000	71.452351
745.000000	71.414121
744.000000	71.452083
743.000000	71.489321
742.000000	71.435159
741.000000	71.335938
740.000000	71.291929
739.000000	71.305472
738.000000	71.287040
737.000000	71.301494
736.000000	71.410219
735.000000	71.298811
734.000000	71.172781
733.000000	71.162378
732.000000	71.195753
731.000000	71.143823
730.000000	71.073332
729.000000	71.180829
728.000000	71.270069
727.000000	71.267424
726.000000	71.154803
725.000000	71.130497
724.000000	71.094909
723.000000	71.059746
722.000000	71.180887
721.000000	71.122780
720.000000	71.103871
719.000000	71.146512
718.000000	71.138205
717.000000	71.067683
716.000000	70.990624
715.000000	70.974054
714.000000	71.003055
713.000000	70.945357
712.000000	70.979581
711.000000	70.886404
710.000000	70.889015
709.000000	70.964689
708.000000	70.862929
707.000000	70.881219
706.000000	70.979702
705.000000	70.882897
704.000000	70.845945
703.000000	70.713607
702.000000	70.688654
701.000000	70.770809
700.000000	70.683270
699.000000	70.681297
698.000000	70.737913
697.000000	70.645964
696.000000	70.626639
695.000000	70.705485
694.000000	70.670704
693.000000	70.610727
692.000000	70.664520
691.000000	70.637171
690.000000	70.511972
689.000000	70.331675
688.000000	70.402838
687.000000	70.374604
686.000000	70.327551
685.000000	70.438596
684.000000	70.388339
683.000000	70.298978
682.000000	70.381423
681.000000	70.266758
680.000000	70.292216
679.000000	70.270106
678.000000	70.258572
677.000000	70.279409
676.000000	70.208987
675.000000	70.204075
674.000000	70.151465
673.000000	70.102284
672.000000	70.117700
671.000000	70.153216
670.000000	70.123994
669.000000	70.102016
668.000000	70.005157
667.000000	69.952661
666.000000	69.985823
665.000000	69.999373
664.000000	70.014401
663.000000	69.990663
662.000000	69.897130
661.000000	69.864078
660.000000	69.822026
659.000000	69.910787
658.000000	69.822620
657.000000	69.819063
656.000000	69.853028
655.000000	69.768800
654.000000	69.812053
653.000000	69.779912
652.000000	69.714281
651.000000	69.709740
650.000000	69.662092
649.000000	69.689119
648.000000	69.685114
647.000000	69.622518
646.000000	69.614642
645.000000	69.615746
644.000000	69.595865
643.000000	69.550618
642.000000	69.461663
641.000000	69.491380
640.000000	69.544881
639.000000	69.559783
638.000000	69.427393
637.000000	69.305481
636.000000	69.390756
635.000000	69.353556
634.000000	69.405341
633.000000	69.360941
632.000000	69.283528
631.000000	69.368257
630.000000	69.240904
629.000000	69.313948
628.000000	69.190174
627.000000	69.235166
626.000000	69.121385
625.000000	69.195800
624.000000	69.214045
623.000000	69.111644
622.000000	69.048486
621.000000	68.999421
620.000000	69.040714
619.000000	68.964787
618.000000	68.971037
617.000000	68.953347
616.000000	68.849531
615.000000	68.871158
614.000000	68.852311
613.000000	68.860278
612.000000	68.808906
611.000000	68.816707
610.000000	68.800154
609.000000	68.803300
608.000000	68.770519
607.000000	68.742484
606.000000	68.711927
605.000000	68.725125
604.000000	68.674893
603.000000	68.625307
602.000000	68.596486
601.000000	68.537746
600.000000	68.551040
599.000000	68.527936
598.000000	68.513389
597.000000	68.467789
596.000000	68.455621
595.000000	68.473693
594.000000	68.397274
593.000000	68.343459
592.000000	68.318647
591.000000	68.288778
590.000000	68.230710
589.000000	68.246799
588.000000	68.230223
587.000000	68.159772
586.000000	68.154260
585.000000	68.169433
584.000000	68.162648
583.000000	68.132544
582.000000	68.110721
581.000000	68.028098
580.000000	68.045904
579.000000	68.001533
578.000000	67.984517
577.000000	67.903907
576.000000	67.911645
575.000000	67.897444
574.000000	67.883123
573.000000	67.825301
572.000000	67.817331
571.000000	67.759881
570.000000	67.702392
569.000000	67.678730
568.000000	67.693541
567.000000	67.683925
566.000000	67.684187
565.000000	67.638960
564.000000	67.605102
563.000000	67.550270
562.000000	67.522169
561.000000	67.479514
560.000000	67.451995
559.000000	67.437456
558.000000	67.418540
557.000000	67.400400
556.000000	67.318311
555.000000	67.302909
554.000000	67.284749
553.000000	67.251026
552.000000	67.273520
551.000000	67.206848
550.000000	67.155805
549.000000	67.125272
548.000000	67.153191
547.000000	67.067470
546.000000	67.011842
545.000000	67.021848
544.000000	66.996371
543.000000	66.969420
542.000000	66.952481
541.000000	66.892290
540.000000	66.899339
539.000000	66.821888
538.000000	66.767479
537.000000	66.780169
536.000000	66.761805
535.000000	66.725917
534.000000	66.684825
533.000000	66.649880
532.000000	66.626438
531.000000	66.595116
530.000000	66.555106
529.000000	66.516833
528.000000	66.466887
527.000000	66.444086
526.000000	66.423207
525.000000	66.393742
524.000000	66.356632
523.000000	66.306494
522.000000	66.258054
521.000000	66.225161
520.000000	66.189288
519.000000	66.150548
518.000000	66.126755
517.000000	66.096941
516.000000	66.063999
515.000000	66.008767
514.000000	65.983931
513.000000	65.940972
512.000000	65.888821
511.000000	65.857057
510.000000	65.819502
509.000000	65.782828
508.000000	65.722049
507.000000	65.694274
506.000000	65.664433
505.000000	65.628030
504.000000	65.574552
503.000000	65.514120
502.000000	65.473883
501.000000	65.442107
500.000000	65.376005
499.000000	65.322878
498.000000	65.305095
497.000000	65.293927
496.000000	65.242962
495.000000	65.148257
494.000000	65.115053
493.000000	65.093998
492.000000	65.084773
491.000000	65.048950
490.000000	64.986450
489.000000	64.903980
488.000000	64.889725
487.000000	64.870438
486.000000	64.780446
485.000000	64.686718
484.000000	64.683094
483.000000	64.622194
482.000000	64.572936
481.000000	64.544756
480.000000	64.465363
479.000000	64.411582
478.000000	64.376155
477.000000	64.307622
476.000000	64.206469
475.000000	64.149271
474.000000	64.127103
473.000000	64.075239
472.000000	63.999088
471.000000	63.935348
470.000000	63.871145
469.000000	63.811503
468.000000	63.761448
467.000000	63.715675
466.000000	63.647653
465.000000	63.580971
464.000000	63.531235
463.000000	63.460670
462.000000	63.412149
461.000000	63.342428
460.000000	63.297748
459.000000	63.260098
458.000000	63.144850
457.000000	63.110050
456.000000	63.031187
455.000000	62.967641
454.000000	62.938305
453.000000	62.766839
452.000000	62.712488
451.000000	62.644284
450.000000	62.629875
449.000000	62.567635
448.000000	62.413206
447.000000	62.369304
446.000000	62.314821
445.000000	62.236422
444.000000	62.115532
443.000000	61.996328
442.000000	61.960262
441.000000	61.870527
440.000000	61.858978
439.000000	61.741287
438.000000	61.611736
437.000000	61.530200
436.000000	61.473725
435.000000	61.281508
434.000000	61.249259
433.000000	61.078013
432.000000	60.976991
431.000000	60.896692
430.000000	60.819413
429.000000	60.720754
428.000000	60.602788
427.000000	60.476608
426.000000	60.355482
425.000000	60.250420
424.000000	60.119432
423.000000	60.052339
422.000000	59.910210
421.000000	59.742777
420.000000	59.591263
419.000000	59.505802
418.000000	59.337141
417.000000	59.162212
416.000000	59.066351
415.000000	58.963453
414.000000	58.744974
413.000000	58.607470
412.000000	58.429018
411.000000	58.296344
410.000000	58.127055
409.000000	57.969527
408.000000	57.831016
407.000000	57.629797
406.000000	57.426813
405.000000	57.234945
404.000000	57.012532
403.000000	56.880275
402.000000	56.607165
401.000000	56.457056
400.000000	56.250954
399.000000	56.082995
398.000000	55.806679
397.000000	55.626964
396.000000	55.408696
395.000000	55.060755
394.000000	54.907764
393.000000	54.681126
392.000000	54.330895
391.000000	54.083747
390.000000	53.845922
389.000000	53.530314
388.000000	53.184111
387.000000	53.002811
386.000000	52.618715
385.000000	52.361971
384.000000	52.082394
383.000000	51.666640
382.000000	51.336715
381.000000	51.050035
380.000000	50.729678
379.000000	50.387988
378.000000	49.804711
377.000000	49.362902
376.000000	48.912359
375.000000	48.421208
374.000000	48.019767
373.000000	47.649508
372.000000	46.769792
371.000000	46.313307
370.000000	45.449296
369.000000	44.776189
368.000000	43.924906
367.000000	42.793753
366.000000	41.794689
365.000000	40.468467
364.000000	39.125420
363.000000	37.468033
362.000000	35.778359
361.000000	33.901851
360.000000	31.825456
359.000000	29.544901
358.000000	27.193102
357.000000	24.631836
356.000000	21.881382
355.000000	19.071947
354.000000	16.281794
353.000000	13.543696
352.000000	10.974907
351.000000	8.500099
350.000000	6.370534
349.000000	4.561477
348.000000	3.088400
347.000000	1.974689
346.000000	1.172676
345.000000	0.637032
344.000000	0.320078
343.000000	0.146451
342.000000	0.083588
341.000000	0.047696
340.000000	0.025658
339.000000	0.024991
338.000000	0.028884
337.000000	0.016840
336.000000	0.021210
335.000000	0.031927
334.000000	0.034401
333.000000	0.035707
332.000000	0.035609
331.000000	0.039034
330.000000	0.034094
329.000000	0.033578
328.000000	0.036498
327.000000	0.047286
326.000000	0.039341
325.000000	0.041823
