PE UV       SUBTECH     SPECTRUM    ASCII       PEDS        4.00        
   -1
100% or 0 Absorbance Baseline.Correction.Raw.asc
18/05/22
16:08:43.00
18/05/22
16:08:43.00
Administrator

325.000000
1
Lambda 850
850L1710193
PerkinElmer UV WinLab 6.4.0.973 / 2.02.06 Lambda 800 UV/VIS, Jan 28 2016 16:58:34

0
0
2
0
0
UV/VIS
0
1
1
RBeamAtt,SBeamAtt,60mm sphere
0
0
0
0
Fix
 
0
0.16
0
0
0
 
 
 
0
 
0
319.2
0
Front
100
 
S:100 R:100
 
0
0
0
 
0
 
 
 
0
 
 
0
0
0
0
0
 
 
 
 
0
0


0
0
#HDR
-1
-1
#GR
nm
%T
1.0
0.0
900.000000
-1.000000
576
8
119.627700
102.138200
#DATA
900.000000	115.193300
899.000000	114.627000
898.000000	115.018000
897.000000	114.042900
896.000000	113.484300
895.000000	113.144600
894.000000	115.274300
893.000000	115.005800
892.000000	116.329100
891.000000	113.536900
890.000000	114.324700
889.000000	114.391300
888.000000	113.390300
887.000000	114.249100
886.000000	114.195400
885.000000	114.693600
884.000000	113.632400
883.000000	114.184300
882.000000	113.473600
881.000000	114.761400
880.000000	114.636400
879.000000	115.850200
878.000000	115.248200
877.000000	115.501900
876.000000	116.771400
875.000000	115.238200
874.000000	115.335400
873.000000	116.103900
872.000000	116.991800
871.000000	115.466300
870.000000	115.160100
869.000000	115.408500
868.000000	116.576300
867.000000	115.884300
866.000000	116.028600
865.000000	116.420000
864.000000	116.710700
863.000000	117.342500
862.000000	116.828500
861.000000	116.912100
860.000000	117.796100
859.000000	117.222000
858.000000	117.385300
857.000000	117.902100
856.000000	117.312400
855.000000	117.401100
854.000000	117.501900
853.000000	117.143400
852.000000	117.770900
851.000000	117.054500
850.000000	117.322900
849.000000	118.322000
848.000000	118.087300
847.000000	118.082000
846.000000	117.977000
845.000000	117.934200
844.000000	118.532200
843.000000	118.934700
842.000000	118.575100
841.000000	118.441000
840.000000	118.998200
839.000000	118.363900
838.000000	118.527900
837.000000	118.446100
836.000000	118.811700
835.000000	118.960300
834.000000	118.716000
833.000000	118.819300
832.000000	118.819200
831.000000	119.034600
830.000000	118.856800
829.000000	119.159900
828.000000	119.412000
827.000000	119.208600
826.000000	119.263500
825.000000	119.352400
824.000000	119.330600
823.000000	119.387400
822.000000	119.504700
821.000000	119.267100
820.000000	119.347600
819.000000	119.324100
818.000000	119.509900
817.000000	119.627700
816.000000	119.368600
815.000000	119.242200
814.000000	119.453700
813.000000	119.525500
812.000000	119.419500
811.000000	119.559500
810.000000	119.434800
809.000000	119.206500
808.000000	119.171900
807.000000	119.146200
806.000000	119.264200
805.000000	119.096300
804.000000	118.882500
803.000000	119.029800
802.000000	119.175600
801.000000	119.030900
800.000000	118.969800
799.000000	118.871400
798.000000	118.901200
797.000000	118.804700
796.000000	118.768200
795.000000	118.870400
794.000000	118.831900
793.000000	118.881800
792.000000	118.880400
791.000000	118.696900
790.000000	118.682400
789.000000	118.748000
788.000000	118.865400
787.000000	118.810500
786.000000	118.516300
785.000000	118.412900
784.000000	118.749800
783.000000	118.901000
782.000000	118.557500
781.000000	118.346800
780.000000	118.440800
779.000000	118.378600
778.000000	118.289700
777.000000	118.286100
776.000000	118.287500
775.000000	118.260600
774.000000	118.211100
773.000000	118.129600
772.000000	118.190000
771.000000	118.155000
770.000000	118.003600
769.000000	118.089300
768.000000	117.998300
767.000000	117.936700
766.000000	117.835300
765.000000	117.784700
764.000000	117.865300
763.000000	117.675800
762.000000	117.640900
761.000000	117.757700
760.000000	117.807200
759.000000	117.575600
758.000000	117.426000
757.000000	117.414500
756.000000	117.357700
755.000000	117.357900
754.000000	117.386200
753.000000	117.408600
752.000000	117.237200
751.000000	117.067900
750.000000	117.215500
749.000000	117.258000
748.000000	117.143600
747.000000	117.002200
746.000000	117.042200
745.000000	117.061300
744.000000	116.886600
743.000000	116.975200
742.000000	116.921700
741.000000	116.905800
740.000000	116.751400
739.000000	116.685000
738.000000	116.647800
737.000000	116.753500
736.000000	116.746400
735.000000	116.677200
734.000000	116.644000
733.000000	116.581200
732.000000	116.565900
731.000000	116.525600
730.000000	116.398300
729.000000	116.295200
728.000000	116.306400
727.000000	116.396800
726.000000	116.354200
725.000000	116.296800
724.000000	116.268100
723.000000	116.325600
722.000000	116.151800
721.000000	116.150700
720.000000	115.980600
719.000000	115.997200
718.000000	115.977200
717.000000	115.978500
716.000000	115.875000
715.000000	115.859700
714.000000	115.889700
713.000000	115.930200
712.000000	116.052000
711.000000	115.845900
710.000000	115.758100
709.000000	115.769600
708.000000	115.649200
707.000000	115.737400
706.000000	115.704700
705.000000	115.612200
704.000000	115.562000
703.000000	115.550200
702.000000	115.537200
701.000000	115.564800
700.000000	115.514000
699.000000	115.475700
698.000000	115.532300
697.000000	115.447400
696.000000	115.403100
695.000000	115.372300
694.000000	115.371500
693.000000	115.369100
692.000000	115.346400
691.000000	115.326800
690.000000	115.305800
689.000000	115.419400
688.000000	115.384100
687.000000	115.372300
686.000000	115.340300
685.000000	115.256500
684.000000	115.292300
683.000000	115.298200
682.000000	115.234900
681.000000	115.170400
680.000000	115.157500
679.000000	115.146800
678.000000	115.192100
677.000000	115.104100
676.000000	115.070200
675.000000	115.099600
674.000000	115.018000
673.000000	114.932900
672.000000	114.873400
671.000000	115.015700
670.000000	115.051500
669.000000	115.002700
668.000000	114.934300
667.000000	114.960400
666.000000	115.017000
665.000000	114.882400
664.000000	114.848200
663.000000	114.880500
662.000000	114.822800
661.000000	114.769700
660.000000	114.807300
659.000000	114.781400
658.000000	114.745300
657.000000	114.763200
656.000000	114.668700
655.000000	114.678300
654.000000	114.680900
653.000000	114.751400
652.000000	114.768800
651.000000	114.760500
650.000000	114.653300
649.000000	114.652800
648.000000	114.661800
647.000000	114.651700
646.000000	114.622900
645.000000	114.672000
644.000000	114.556400
643.000000	114.590900
642.000000	114.494200
641.000000	114.471200
640.000000	114.525400
639.000000	114.463600
638.000000	114.491200
637.000000	114.388800
636.000000	114.474000
635.000000	114.448900
634.000000	114.416700
633.000000	114.383600
632.000000	114.350100
631.000000	114.417000
630.000000	114.338400
629.000000	114.269700
628.000000	114.310400
627.000000	114.242300
626.000000	114.394500
625.000000	114.275300
624.000000	114.295500
623.000000	114.264200
622.000000	114.217200
621.000000	114.332100
620.000000	114.232900
619.000000	114.239100
618.000000	114.255200
617.000000	114.231900
616.000000	114.182500
615.000000	114.177000
614.000000	114.152800
613.000000	114.209300
612.000000	114.213500
611.000000	114.194800
610.000000	114.111800
609.000000	114.163200
608.000000	114.097500
607.000000	114.151300
606.000000	114.103000
605.000000	114.072400
604.000000	114.104300
603.000000	114.124500
602.000000	114.122200
601.000000	114.132700
600.000000	114.081900
599.000000	114.108000
598.000000	114.062200
597.000000	114.058600
596.000000	114.000500
595.000000	113.979400
594.000000	114.030600
593.000000	114.087500
592.000000	114.098400
591.000000	114.064800
590.000000	113.992200
589.000000	114.095100
588.000000	113.983400
587.000000	114.039300
586.000000	114.020800
585.000000	113.980000
584.000000	114.021900
583.000000	114.018100
582.000000	113.996800
581.000000	114.089600
580.000000	114.008700
579.000000	113.971000
578.000000	114.049400
577.000000	114.055800
576.000000	114.046300
575.000000	114.032900
574.000000	114.006200
573.000000	114.030900
572.000000	114.010100
571.000000	113.962700
570.000000	114.002100
569.000000	114.020800
568.000000	114.012600
567.000000	113.942900
566.000000	113.925800
565.000000	113.907100
564.000000	113.901200
563.000000	113.917100
562.000000	114.079200
561.000000	114.208700
560.000000	114.241700
559.000000	114.199200
558.000000	114.202200
557.000000	114.264800
556.000000	114.279700
555.000000	114.246400
554.000000	114.218400
553.000000	114.256200
552.000000	114.283200
551.000000	114.254900
550.000000	114.332800
549.000000	114.316700
548.000000	114.331900
547.000000	114.336100
546.000000	114.353200
545.000000	114.358200
544.000000	114.406400
543.000000	114.429800
542.000000	114.425700
541.000000	114.455000
540.000000	114.478100
539.000000	114.459700
538.000000	114.461200
537.000000	114.479800
536.000000	114.516300
535.000000	114.540000
534.000000	114.567700
533.000000	114.536300
532.000000	114.597900
531.000000	114.668900
530.000000	114.718400
529.000000	114.733800
528.000000	114.717500
527.000000	114.742800
526.000000	114.773900
525.000000	114.805200
524.000000	114.817200
523.000000	114.834900
522.000000	114.857600
521.000000	114.864700
520.000000	114.856600
519.000000	114.847900
518.000000	114.797100
517.000000	114.748300
516.000000	114.697000
515.000000	114.593800
514.000000	114.486700
513.000000	114.374900
512.000000	114.232900
511.000000	114.071200
510.000000	113.891000
509.000000	113.687600
508.000000	113.483900
507.000000	113.250200
506.000000	113.049500
505.000000	112.908200
504.000000	112.748100
503.000000	112.618900
502.000000	112.526800
501.000000	112.409000
500.000000	112.380100
499.000000	112.388900
498.000000	112.399700
497.000000	112.390000
496.000000	112.436100
495.000000	112.518300
494.000000	112.589100
493.000000	112.682700
492.000000	112.748700
491.000000	112.834800
490.000000	112.904300
489.000000	112.972600
488.000000	113.056000
487.000000	113.178100
486.000000	113.248500
485.000000	113.418100
484.000000	113.603700
483.000000	113.766500
482.000000	114.004800
481.000000	114.305100
480.000000	114.450700
479.000000	114.409400
478.000000	114.337200
477.000000	114.266000
476.000000	114.227400
475.000000	114.157500
474.000000	114.163700
473.000000	114.137800
472.000000	114.061500
471.000000	114.056600
470.000000	114.005000
469.000000	113.934500
468.000000	113.836800
467.000000	113.684400
466.000000	113.574900
465.000000	113.469500
464.000000	113.262200
463.000000	113.125200
462.000000	112.972100
461.000000	112.826500
460.000000	112.739900
459.000000	112.684200
458.000000	112.662300
457.000000	112.534900
456.000000	112.468400
455.000000	112.490500
454.000000	112.477100
453.000000	112.498700
452.000000	112.572700
451.000000	112.585800
450.000000	112.624600
449.000000	112.586900
448.000000	112.493200
447.000000	112.549700
446.000000	112.575700
445.000000	112.610400
444.000000	112.824000
443.000000	112.971000
442.000000	112.995800
441.000000	112.954700
440.000000	112.833500
439.000000	112.799000
438.000000	112.846300
437.000000	112.816900
436.000000	112.728900
435.000000	112.780800
434.000000	112.759400
433.000000	112.748200
432.000000	112.752100
431.000000	112.681300
430.000000	112.609700
429.000000	112.571900
428.000000	112.554100
427.000000	112.422000
426.000000	112.449100
425.000000	112.468400
424.000000	112.413500
423.000000	112.363900
422.000000	112.373700
421.000000	112.305100
420.000000	112.169900
419.000000	112.089800
418.000000	112.048800
417.000000	111.837600
416.000000	111.761800
415.000000	111.603600
414.000000	111.539000
413.000000	111.318000
412.000000	111.189500
411.000000	110.974300
410.000000	110.800900
409.000000	110.658400
408.000000	110.369400
407.000000	110.087900
406.000000	109.787500
405.000000	109.535200
404.000000	109.265700
403.000000	109.011500
402.000000	108.684300
401.000000	108.471700
400.000000	108.203900
399.000000	108.060400
398.000000	107.739100
397.000000	107.504000
396.000000	107.380000
395.000000	107.108200
394.000000	106.968100
393.000000	106.775600
392.000000	106.562500
391.000000	106.367700
390.000000	106.267700
389.000000	106.157600
388.000000	105.941600
387.000000	105.983500
386.000000	105.826900
385.000000	105.749100
384.000000	105.652100
383.000000	105.570200
382.000000	105.538400
381.000000	105.349100
380.000000	105.393200
379.000000	105.670200
378.000000	107.099300
377.000000	106.613200
376.000000	106.649300
375.000000	106.472000
374.000000	106.242000
373.000000	105.928900
372.000000	106.001100
371.000000	105.650100
370.000000	105.519300
369.000000	105.297600
368.000000	105.223700
367.000000	105.233200
366.000000	104.958700
365.000000	104.951900
364.000000	104.935900
363.000000	104.833400
362.000000	104.691400
361.000000	104.570300
360.000000	104.610900
359.000000	104.468600
358.000000	104.410900
357.000000	104.409500
356.000000	104.378800
355.000000	104.090100
354.000000	104.175400
353.000000	104.102300
352.000000	104.120900
351.000000	104.054700
350.000000	103.874800
349.000000	103.864300
348.000000	103.709300
347.000000	103.718300
346.000000	103.643500
345.000000	103.671200
344.000000	103.577000
343.000000	103.558400
342.000000	103.406000
341.000000	103.346100
340.000000	103.368000
339.000000	103.173000
338.000000	103.129500
337.000000	103.108500
336.000000	103.072900
335.000000	102.932300
334.000000	102.908300
333.000000	102.843400
332.000000	102.807100
331.000000	102.728900
330.000000	102.744800
329.000000	102.552400
328.000000	102.427100
327.000000	102.276300
326.000000	102.239500
325.000000	102.138200
