PE UV       SUBTECH     SPECTRUM    ASCII       PEDS        4.00        
   -1
J31.Sample.Cycle1.Raw.asc
18/05/22
18:21:43.00
18/05/22
18:21:43.00
Administrator

325.000000
1
Lambda 850
850L1710193
PerkinElmer UV WinLab 6.4.0.973 / 2.02.06 Lambda 800 UV/VIS, Jan 28 2016 16:58:34

0
0
2
0
0
UV/VIS
1
1
1
RBeamAtt,SBeamAtt,60mm sphere
0
0
0
0
Fix
 
0
0.16
0
0
0
 
 
 
0
 
0
319.2
0
Front
100
 
S:100 R:100
 
0
0
0
 
0
 
 
 
0
 
 
0
0
0
0
0
 
 
 
 
0
0


0
0
#HDR
-1
-1
#GR
nm
%T
1.0
0.0
900.000000
-1.000000
576
8
75.766604
0.015227
#DATA
900.000000	72.072160
899.000000	70.152407
898.000000	73.653254
897.000000	71.808504
896.000000	75.766604
895.000000	72.394440
894.000000	73.502854
893.000000	74.136261
892.000000	70.597125
891.000000	72.936464
890.000000	70.649125
889.000000	72.730181
888.000000	74.108544
887.000000	74.010299
886.000000	73.212406
885.000000	72.566647
884.000000	74.590874
883.000000	74.803366
882.000000	74.826215
881.000000	73.280040
880.000000	73.021920
879.000000	73.862885
878.000000	73.230385
877.000000	72.653870
876.000000	71.992029
875.000000	73.897718
874.000000	73.919369
873.000000	71.945731
872.000000	71.721266
871.000000	73.061577
870.000000	73.737866
869.000000	73.603504
868.000000	73.278960
867.000000	72.953368
866.000000	72.939258
865.000000	73.100842
864.000000	73.638321
863.000000	72.628161
862.000000	73.326029
861.000000	72.882277
860.000000	72.340680
859.000000	72.837095
858.000000	72.785775
857.000000	72.765201
856.000000	73.447052
855.000000	72.914223
854.000000	72.835333
853.000000	73.005223
852.000000	72.588729
851.000000	73.478166
850.000000	72.959755
849.000000	72.071128
848.000000	72.533117
847.000000	72.418404
846.000000	72.715699
845.000000	72.508144
844.000000	72.420743
843.000000	72.100657
842.000000	72.191548
841.000000	72.464349
840.000000	72.074199
839.000000	72.473279
838.000000	72.279522
837.000000	72.459372
836.000000	72.118487
835.000000	72.059754
834.000000	72.263553
833.000000	72.109413
832.000000	72.107959
831.000000	71.864399
830.000000	71.902155
829.000000	71.710030
828.000000	71.458145
827.000000	71.770913
826.000000	71.735778
825.000000	71.699522
824.000000	71.797762
823.000000	71.515755
822.000000	71.397610
821.000000	71.665698
820.000000	71.612416
819.000000	71.554447
818.000000	71.615239
817.000000	71.353959
816.000000	71.427159
815.000000	71.430920
814.000000	71.436130
813.000000	71.300768
812.000000	71.505575
811.000000	71.348157
810.000000	71.437387
809.000000	71.430836
808.000000	71.422793
807.000000	71.325145
806.000000	71.182383
805.000000	71.355869
804.000000	71.520451
803.000000	71.366498
802.000000	71.213235
801.000000	71.262168
800.000000	71.267834
799.000000	71.340457
798.000000	71.408026
797.000000	71.411569
796.000000	71.242386
795.000000	71.180126
794.000000	71.149161
793.000000	71.062854
792.000000	71.068317
791.000000	71.179281
790.000000	71.137422
789.000000	71.014501
788.000000	70.877732
787.000000	70.922267
786.000000	71.062124
785.000000	71.069875
784.000000	70.892330
783.000000	70.787966
782.000000	70.993990
781.000000	71.026762
780.000000	70.834037
779.000000	70.827075
778.000000	70.858156
777.000000	70.869358
776.000000	70.856346
775.000000	70.774290
774.000000	70.794198
773.000000	70.734685
772.000000	70.678230
771.000000	70.750878
770.000000	70.774620
769.000000	70.628668
768.000000	70.609746
767.000000	70.631618
766.000000	70.615766
765.000000	70.548722
764.000000	70.521434
763.000000	70.594464
762.000000	70.584890
761.000000	70.508680
760.000000	70.401045
759.000000	70.543208
758.000000	70.526204
757.000000	70.359964
756.000000	70.362320
755.000000	70.379668
754.000000	70.309713
753.000000	70.262230
752.000000	70.386874
751.000000	70.535305
750.000000	70.380880
749.000000	70.216702
748.000000	70.236616
747.000000	70.296541
746.000000	70.217921
745.000000	70.102331
744.000000	70.224046
743.000000	70.140765
742.000000	70.115128
741.000000	70.103023
740.000000	70.118645
739.000000	70.138750
738.000000	70.133084
737.000000	70.061454
736.000000	69.998561
735.000000	69.999023
734.000000	70.003429
733.000000	69.928513
732.000000	69.922422
731.000000	69.952268
730.000000	70.002569
729.000000	69.994290
728.000000	69.937424
727.000000	69.878210
726.000000	69.819998
725.000000	69.804242
724.000000	69.813474
723.000000	69.765555
722.000000	69.880105
721.000000	69.768843
720.000000	69.761839
719.000000	69.804444
718.000000	69.789062
717.000000	69.731286
716.000000	69.729018
715.000000	69.746599
714.000000	69.698774
713.000000	69.654240
712.000000	69.476528
711.000000	69.604794
710.000000	69.641865
709.000000	69.591758
708.000000	69.616910
707.000000	69.539492
706.000000	69.492942
705.000000	69.517923
704.000000	69.550458
703.000000	69.457431
702.000000	69.417123
701.000000	69.414130
700.000000	69.362761
699.000000	69.396332
698.000000	69.344763
697.000000	69.407280
696.000000	69.311396
695.000000	69.290896
694.000000	69.248645
693.000000	69.214460
692.000000	69.231116
691.000000	69.205857
690.000000	69.106758
689.000000	69.089685
688.000000	69.063502
687.000000	69.035202
686.000000	69.072215
685.000000	69.073501
684.000000	68.996629
683.000000	68.960313
682.000000	68.886162
681.000000	68.982829
680.000000	68.987604
679.000000	68.933049
678.000000	68.863837
677.000000	68.801633
676.000000	68.667040
675.000000	68.641073
674.000000	68.791407
673.000000	68.716268
672.000000	68.680826
671.000000	68.622632
670.000000	68.581809
669.000000	68.571347
668.000000	68.538026
667.000000	68.405468
666.000000	68.423537
665.000000	68.484381
664.000000	68.436771
663.000000	68.347109
662.000000	68.316484
661.000000	68.357763
660.000000	68.296528
659.000000	68.271950
658.000000	68.221095
657.000000	68.082103
656.000000	68.194721
655.000000	68.129803
654.000000	68.051611
653.000000	67.925620
652.000000	67.894585
651.000000	67.843117
650.000000	67.863376
649.000000	67.863497
648.000000	67.737468
647.000000	67.746924
646.000000	67.753041
645.000000	67.673974
644.000000	67.699840
643.000000	67.564091
642.000000	67.511891
641.000000	67.501433
640.000000	67.442419
639.000000	67.348834
638.000000	67.363780
637.000000	67.298110
636.000000	67.259028
635.000000	67.188763
634.000000	67.168516
633.000000	67.078672
632.000000	67.063168
631.000000	67.015828
630.000000	66.941990
629.000000	67.013478
628.000000	66.887615
627.000000	66.828399
626.000000	66.679080
625.000000	66.735156
624.000000	66.693877
623.000000	66.608352
622.000000	66.602403
621.000000	66.419667
620.000000	66.416943
619.000000	66.368870
618.000000	66.321008
617.000000	66.262751
616.000000	66.222845
615.000000	66.217802
614.000000	66.167102
613.000000	66.025446
612.000000	65.934587
611.000000	65.865083
610.000000	65.853575
609.000000	65.818583
608.000000	65.767260
607.000000	65.651114
606.000000	65.608880
605.000000	65.548459
604.000000	65.478952
603.000000	65.451765
602.000000	65.383860
601.000000	65.334825
600.000000	65.296774
599.000000	65.213657
598.000000	65.148138
597.000000	65.093294
596.000000	65.077785
595.000000	65.015871
594.000000	64.940288
593.000000	64.847683
592.000000	64.782153
591.000000	64.775286
590.000000	64.735394
589.000000	64.608121
588.000000	64.591423
587.000000	64.532227
586.000000	64.465957
585.000000	64.462713
584.000000	64.358689
583.000000	64.281724
582.000000	64.236540
581.000000	64.116624
580.000000	64.120370
579.000000	64.061296
578.000000	63.978942
577.000000	63.895479
576.000000	63.809874
575.000000	63.773963
574.000000	63.759164
573.000000	63.688790
572.000000	63.582700
571.000000	63.583436
570.000000	63.572425
569.000000	63.454826
568.000000	63.375802
567.000000	63.362000
566.000000	63.319634
565.000000	63.262606
564.000000	63.206358
563.000000	63.162422
562.000000	63.108174
561.000000	63.028648
560.000000	62.954683
559.000000	62.935555
558.000000	62.859735
557.000000	62.742682
556.000000	62.691624
555.000000	62.668408
554.000000	62.651464
553.000000	62.576560
552.000000	62.489325
551.000000	62.475657
550.000000	62.409125
549.000000	62.353357
548.000000	62.288303
547.000000	62.241234
546.000000	62.194324
545.000000	62.153829
544.000000	62.094079
543.000000	62.026325
542.000000	61.988784
541.000000	61.915425
540.000000	61.854713
539.000000	61.848493
538.000000	61.816319
537.000000	61.737704
536.000000	61.679167
535.000000	61.624847
534.000000	61.578962
533.000000	61.578818
532.000000	61.509155
531.000000	61.432524
530.000000	61.363129
529.000000	61.323603
528.000000	61.291956
527.000000	61.258833
526.000000	61.222456
525.000000	61.153328
524.000000	61.132130
523.000000	61.095277
522.000000	61.014421
521.000000	60.967904
520.000000	60.906557
519.000000	60.846128
518.000000	60.819568
517.000000	60.768046
516.000000	60.732539
515.000000	60.710789
514.000000	60.650888
513.000000	60.600884
512.000000	60.558386
511.000000	60.507122
510.000000	60.480196
509.000000	60.461299
508.000000	60.409098
507.000000	60.365633
506.000000	60.323929
505.000000	60.264445
504.000000	60.199241
503.000000	60.145500
502.000000	60.116257
501.000000	60.102394
500.000000	60.042659
499.000000	59.970958
498.000000	59.896245
497.000000	59.872231
496.000000	59.782134
495.000000	59.714731
494.000000	59.685618
493.000000	59.602583
492.000000	59.577804
491.000000	59.537306
490.000000	59.467620
489.000000	59.405289
488.000000	59.337585
487.000000	59.277281
486.000000	59.263037
485.000000	59.178385
484.000000	59.092794
483.000000	59.036184
482.000000	59.029971
481.000000	58.995005
480.000000	58.946691
479.000000	58.923305
478.000000	58.829147
477.000000	58.801918
476.000000	58.732318
475.000000	58.695924
474.000000	58.652181
473.000000	58.612659
472.000000	58.590410
471.000000	58.520682
470.000000	58.453927
469.000000	58.403293
468.000000	58.346949
467.000000	58.313718
466.000000	58.248874
465.000000	58.202865
464.000000	58.150469
463.000000	58.089798
462.000000	58.032204
461.000000	57.956154
460.000000	57.883234
459.000000	57.800117
458.000000	57.699426
457.000000	57.686815
456.000000	57.622141
455.000000	57.518190
454.000000	57.450628
453.000000	57.388308
452.000000	57.274188
451.000000	57.189184
450.000000	57.076695
449.000000	57.017468
448.000000	56.988689
447.000000	56.899219
446.000000	56.770422
445.000000	56.734103
444.000000	56.618450
443.000000	56.529817
442.000000	56.392804
441.000000	56.362683
440.000000	56.302073
439.000000	56.238796
438.000000	56.061563
437.000000	55.947380
436.000000	55.883806
435.000000	55.811362
434.000000	55.701343
433.000000	55.587850
432.000000	55.441007
431.000000	55.397213
430.000000	55.299943
429.000000	55.208271
428.000000	55.112519
427.000000	55.070360
426.000000	54.913379
425.000000	54.759648
424.000000	54.660339
423.000000	54.579362
422.000000	54.389684
421.000000	54.306438
420.000000	54.206610
419.000000	54.131330
418.000000	53.979784
417.000000	53.886171
416.000000	53.707528
415.000000	53.637517
414.000000	53.448570
413.000000	53.319769
412.000000	53.175884
411.000000	53.063187
410.000000	52.857423
409.000000	52.648782
408.000000	52.487193
407.000000	52.406214
406.000000	52.285369
405.000000	52.123792
404.000000	51.932857
403.000000	51.786830
402.000000	51.644994
401.000000	51.433784
400.000000	51.258966
399.000000	51.079119
398.000000	50.943065
397.000000	50.760065
396.000000	50.552058
395.000000	50.396515
394.000000	50.155981
393.000000	49.916273
392.000000	49.767789
391.000000	49.561568
390.000000	49.351967
389.000000	49.113865
388.000000	48.901565
387.000000	48.609548
386.000000	48.408486
385.000000	48.194547
384.000000	47.959671
383.000000	47.703424
382.000000	47.425487
381.000000	47.211509
380.000000	46.848848
379.000000	46.638787
378.000000	46.140358
377.000000	45.915609
376.000000	45.396360
375.000000	45.138722
374.000000	44.694189
373.000000	44.322654
372.000000	43.811621
371.000000	43.348563
370.000000	42.756444
369.000000	42.150153
368.000000	41.370433
367.000000	40.563814
366.000000	39.664649
365.000000	38.513833
364.000000	37.401690
363.000000	36.015430
362.000000	34.603415
361.000000	32.907527
360.000000	31.074582
359.000000	29.130188
358.000000	27.052156
357.000000	24.660974
356.000000	22.206329
355.000000	19.711481
354.000000	17.034924
353.000000	14.414091
352.000000	11.833263
351.000000	9.451663
350.000000	7.270965
349.000000	5.362285
348.000000	3.750869
347.000000	2.467838
346.000000	1.525904
345.000000	0.866200
344.000000	0.459079
343.000000	0.222193
342.000000	0.105216
341.000000	0.048478
340.000000	0.027088
339.000000	0.024134
338.000000	0.022302
337.000000	0.015227
336.000000	0.015620
335.000000	0.019333
334.000000	0.023905
333.000000	0.023725
332.000000	0.026263
331.000000	0.021805
330.000000	0.025500
329.000000	0.023013
328.000000	0.029582
327.000000	0.033928
326.000000	0.031495
325.000000	0.039065
