PE UV       SUBTECH     SPECTRUM    ASCII       PEDS        4.00        
   -1
J38.Sample.Cycle1.Raw.asc
18/05/22
18:39:06.00
18/05/22
18:39:06.00
Administrator

325.000000
1
Lambda 850
850L1710193
PerkinElmer UV WinLab 6.4.0.973 / 2.02.06 Lambda 800 UV/VIS, Jan 28 2016 16:58:34

0
0
2
0
0
UV/VIS
1
1
1
RBeamAtt,SBeamAtt,60mm sphere
0
0
0
0
Fix
 
0
0.16
0
0
0
 
 
 
0
 
0
319.2
0
Front
100
 
S:100 R:100
 
0
0
0
 
0
 
 
 
0
 
 
0
0
0
0
0
 
 
 
 
0
0


0
0
#HDR
-1
-1
#GR
nm
%T
1.0
0.0
900.000000
-1.000000
576
8
74.772819
0.017648
#DATA
900.000000	69.181454
899.000000	72.107880
898.000000	70.997322
897.000000	72.089187
896.000000	71.510068
895.000000	72.710496
894.000000	71.154195
893.000000	70.958247
892.000000	70.664262
891.000000	71.980915
890.000000	72.862207
889.000000	74.772819
888.000000	72.912762
887.000000	72.058161
886.000000	72.398976
885.000000	73.315948
884.000000	72.688423
883.000000	73.146921
882.000000	73.922569
881.000000	74.385551
880.000000	74.063561
879.000000	72.441739
878.000000	73.964279
877.000000	74.306830
876.000000	73.149761
875.000000	72.986822
874.000000	73.371402
873.000000	73.034325
872.000000	72.238311
871.000000	73.423068
870.000000	73.223973
869.000000	73.208213
868.000000	72.097330
867.000000	72.958718
866.000000	73.111112
865.000000	72.647827
864.000000	72.329529
863.000000	72.604981
862.000000	72.619866
861.000000	72.726005
860.000000	72.076155
859.000000	72.250601
858.000000	72.218327
857.000000	72.242394
856.000000	72.563003
855.000000	72.433137
854.000000	72.197386
853.000000	72.590347
852.000000	72.457712
851.000000	72.578756
850.000000	72.847245
849.000000	72.067240
848.000000	71.988605
847.000000	72.128351
846.000000	71.786111
845.000000	72.060098
844.000000	71.747086
843.000000	71.631744
842.000000	71.781259
841.000000	71.859238
840.000000	71.382676
839.000000	71.625301
838.000000	71.567454
837.000000	71.569853
836.000000	71.184067
835.000000	71.036472
834.000000	71.234374
833.000000	71.325029
832.000000	71.315326
831.000000	70.881324
830.000000	71.086888
829.000000	70.982520
828.000000	70.808880
827.000000	70.766371
826.000000	70.659758
825.000000	70.746462
824.000000	70.719078
823.000000	70.729658
822.000000	70.457815
821.000000	70.650414
820.000000	70.535227
819.000000	70.562108
818.000000	70.317605
817.000000	70.148302
816.000000	70.393889
815.000000	70.522265
814.000000	70.342400
813.000000	70.169629
812.000000	70.166430
811.000000	70.052233
810.000000	70.053954
809.000000	70.162869
808.000000	70.127438
807.000000	70.047051
806.000000	69.746747
805.000000	69.953055
804.000000	70.206633
803.000000	69.954751
802.000000	69.909193
801.000000	69.905209
800.000000	69.872102
799.000000	69.842872
798.000000	69.801566
797.000000	69.912217
796.000000	69.856157
795.000000	69.559705
794.000000	69.587375
793.000000	69.548493
792.000000	69.430958
791.000000	69.395662
790.000000	69.395041
789.000000	69.297083
788.000000	69.053400
787.000000	68.930945
786.000000	69.268109
785.000000	69.448346
784.000000	69.190264
783.000000	68.959807
782.000000	69.098201
781.000000	69.144751
780.000000	68.989065
779.000000	68.949540
778.000000	68.975997
777.000000	68.871659
776.000000	68.803128
775.000000	68.837466
774.000000	68.799630
773.000000	68.713091
772.000000	68.629579
771.000000	68.624095
770.000000	68.633923
769.000000	68.520603
768.000000	68.573022
767.000000	68.560677
766.000000	68.419311
765.000000	68.420177
764.000000	68.338603
763.000000	68.378545
762.000000	68.281610
761.000000	68.146372
760.000000	68.145410
759.000000	68.231249
758.000000	68.190946
757.000000	68.155466
756.000000	68.161356
755.000000	68.099804
754.000000	67.991212
753.000000	67.980284
752.000000	68.032331
751.000000	67.960816
750.000000	67.820211
749.000000	67.801515
748.000000	67.820777
747.000000	67.736162
746.000000	67.647994
745.000000	67.577756
744.000000	67.638292
743.000000	67.561500
742.000000	67.552644
741.000000	67.532578
740.000000	67.491525
739.000000	67.436603
738.000000	67.424846
737.000000	67.368344
736.000000	67.322847
735.000000	67.308180
734.000000	67.296560
733.000000	67.274569
732.000000	67.267957
731.000000	67.271741
730.000000	67.256051
729.000000	67.189359
728.000000	67.108173
727.000000	67.045744
726.000000	67.016146
725.000000	67.038216
724.000000	67.019157
723.000000	66.905393
722.000000	66.920185
721.000000	66.896110
720.000000	66.935074
719.000000	66.846355
718.000000	66.832360
717.000000	66.745992
716.000000	66.812945
715.000000	66.815208
714.000000	66.701355
713.000000	66.658386
712.000000	66.529659
711.000000	66.637922
710.000000	66.653997
709.000000	66.581469
708.000000	66.599337
707.000000	66.444814
706.000000	66.446912
705.000000	66.564342
704.000000	66.478514
703.000000	66.452676
702.000000	66.403115
701.000000	66.352990
700.000000	66.274737
699.000000	66.264158
698.000000	66.230829
697.000000	66.240470
696.000000	66.166160
695.000000	66.061611
694.000000	66.119276
693.000000	66.110856
692.000000	66.064567
691.000000	66.009115
690.000000	65.861214
689.000000	65.872028
688.000000	65.796761
687.000000	65.793349
686.000000	65.752733
685.000000	65.728267
684.000000	65.597616
683.000000	65.637712
682.000000	65.633588
681.000000	65.586557
680.000000	65.478497
679.000000	65.491529
678.000000	65.417420
677.000000	65.355361
676.000000	65.324993
675.000000	65.215518
674.000000	65.244136
673.000000	65.161673
672.000000	65.129699
671.000000	64.951828
670.000000	64.888854
669.000000	64.926302
668.000000	64.829211
667.000000	64.677402
666.000000	64.546893
665.000000	64.658381
664.000000	64.582553
663.000000	64.531840
662.000000	64.364220
661.000000	64.379013
660.000000	64.310022
659.000000	64.171460
658.000000	64.078267
657.000000	64.006232
656.000000	63.983807
655.000000	63.889158
654.000000	63.774002
653.000000	63.635912
652.000000	63.503844
651.000000	63.444129
650.000000	63.431667
649.000000	63.278437
648.000000	63.138813
647.000000	63.134171
646.000000	63.090622
645.000000	62.887627
644.000000	62.869905
643.000000	62.692151
642.000000	62.631295
641.000000	62.586572
640.000000	62.453919
639.000000	62.345147
638.000000	62.242950
637.000000	62.205128
636.000000	62.035659
635.000000	61.904658
634.000000	61.782852
633.000000	61.731839
632.000000	61.643059
631.000000	61.485531
630.000000	61.365123
629.000000	61.322468
628.000000	61.140719
627.000000	61.051730
626.000000	60.851702
625.000000	60.848057
624.000000	60.684891
623.000000	60.580654
622.000000	60.502884
621.000000	60.284732
620.000000	60.181874
619.000000	60.096062
618.000000	59.925938
617.000000	59.860687
616.000000	59.713616
615.000000	59.623917
614.000000	59.503402
613.000000	59.360315
612.000000	59.189763
611.000000	59.087892
610.000000	59.010987
609.000000	58.836035
608.000000	58.780254
607.000000	58.621934
606.000000	58.489873
605.000000	58.431049
604.000000	58.307706
603.000000	58.126870
602.000000	58.017897
601.000000	57.872459
600.000000	57.773670
599.000000	57.635749
598.000000	57.559560
597.000000	57.409963
596.000000	57.345363
595.000000	57.183228
594.000000	57.001980
593.000000	56.905533
592.000000	56.792120
591.000000	56.624217
590.000000	56.547904
589.000000	56.387698
588.000000	56.305216
587.000000	56.175722
586.000000	56.066876
585.000000	55.986928
584.000000	55.843132
583.000000	55.726854
582.000000	55.606210
581.000000	55.429417
580.000000	55.371037
579.000000	55.257039
578.000000	55.094021
577.000000	54.996765
576.000000	54.875432
575.000000	54.777700
574.000000	54.665097
573.000000	54.542497
572.000000	54.412811
571.000000	54.331461
570.000000	54.189616
569.000000	54.077151
568.000000	53.992103
567.000000	53.900857
566.000000	53.809146
565.000000	53.686118
564.000000	53.569409
563.000000	53.462123
562.000000	53.356791
561.000000	53.250146
560.000000	53.126310
559.000000	53.030231
558.000000	52.947229
557.000000	52.833856
556.000000	52.718987
555.000000	52.626253
554.000000	52.549414
553.000000	52.429190
552.000000	52.338139
551.000000	52.258678
550.000000	52.132022
549.000000	52.061947
548.000000	51.965987
547.000000	51.883001
546.000000	51.788406
545.000000	51.706130
544.000000	51.612585
543.000000	51.512281
542.000000	51.441503
541.000000	51.357826
540.000000	51.251549
539.000000	51.177926
538.000000	51.118982
537.000000	51.036253
536.000000	50.942617
535.000000	50.879605
534.000000	50.784645
533.000000	50.723395
532.000000	50.640108
531.000000	50.540818
530.000000	50.455027
529.000000	50.390208
528.000000	50.344281
527.000000	50.278536
526.000000	50.202180
525.000000	50.133705
524.000000	50.068805
523.000000	50.004920
522.000000	49.935137
521.000000	49.857180
520.000000	49.790696
519.000000	49.704783
518.000000	49.655436
517.000000	49.614156
516.000000	49.533466
515.000000	49.475452
514.000000	49.428886
513.000000	49.380764
512.000000	49.317666
511.000000	49.245910
510.000000	49.190191
509.000000	49.156724
508.000000	49.101767
507.000000	49.067463
506.000000	49.023569
505.000000	48.951449
504.000000	48.892088
503.000000	48.828127
502.000000	48.768649
501.000000	48.734532
500.000000	48.668670
499.000000	48.617613
498.000000	48.561340
497.000000	48.512323
496.000000	48.446095
495.000000	48.372220
494.000000	48.293663
493.000000	48.237662
492.000000	48.191509
491.000000	48.151545
490.000000	48.113314
489.000000	48.048819
488.000000	47.994534
487.000000	47.951945
486.000000	47.904299
485.000000	47.833282
484.000000	47.787880
483.000000	47.765467
482.000000	47.742025
481.000000	47.680637
480.000000	47.637018
479.000000	47.624758
478.000000	47.572006
477.000000	47.523148
476.000000	47.478976
475.000000	47.475462
474.000000	47.420765
473.000000	47.357317
472.000000	47.356032
471.000000	47.313702
470.000000	47.250735
469.000000	47.194923
468.000000	47.127906
467.000000	47.093621
466.000000	47.065241
465.000000	47.020389
464.000000	46.990964
463.000000	46.936580
462.000000	46.879716
461.000000	46.815686
460.000000	46.769688
459.000000	46.713115
458.000000	46.646837
457.000000	46.630779
456.000000	46.568547
455.000000	46.498327
454.000000	46.452656
453.000000	46.365780
452.000000	46.291685
451.000000	46.208403
450.000000	46.139032
449.000000	46.129612
448.000000	46.122610
447.000000	46.010785
446.000000	45.895784
445.000000	45.825874
444.000000	45.732468
443.000000	45.657735
442.000000	45.570189
441.000000	45.517628
440.000000	45.522917
439.000000	45.447921
438.000000	45.298162
437.000000	45.190215
436.000000	45.191606
435.000000	45.078418
434.000000	45.015050
433.000000	44.945196
432.000000	44.795973
431.000000	44.748596
430.000000	44.727852
429.000000	44.586882
428.000000	44.515127
427.000000	44.480084
426.000000	44.378746
425.000000	44.206106
424.000000	44.135802
423.000000	44.005059
422.000000	43.877704
421.000000	43.815641
420.000000	43.689439
419.000000	43.649913
418.000000	43.527285
417.000000	43.459355
416.000000	43.364101
415.000000	43.188661
414.000000	43.100351
413.000000	42.985950
412.000000	42.825896
411.000000	42.689884
410.000000	42.595863
409.000000	42.448111
408.000000	42.327493
407.000000	42.224259
406.000000	42.092224
405.000000	41.928896
404.000000	41.838015
403.000000	41.625425
402.000000	41.535622
401.000000	41.383605
400.000000	41.266442
399.000000	41.117930
398.000000	40.987348
397.000000	40.833364
396.000000	40.612498
395.000000	40.495125
394.000000	40.334361
393.000000	40.202350
392.000000	40.053584
391.000000	39.926782
390.000000	39.731640
389.000000	39.564101
388.000000	39.456266
387.000000	39.151566
386.000000	39.094313
385.000000	38.804207
384.000000	38.685459
383.000000	38.455265
382.000000	38.242952
381.000000	38.008963
380.000000	37.810409
379.000000	37.619310
378.000000	37.281476
377.000000	37.078711
376.000000	36.760485
375.000000	36.479168
374.000000	36.058621
373.000000	35.743315
372.000000	35.280577
371.000000	34.942418
370.000000	34.446968
369.000000	33.983016
368.000000	33.314643
367.000000	32.576696
366.000000	31.849766
365.000000	30.936934
364.000000	29.945424
363.000000	28.770888
362.000000	27.564251
361.000000	26.194244
360.000000	24.669609
359.000000	22.994086
358.000000	21.233032
357.000000	19.286942
356.000000	17.236067
355.000000	15.164651
354.000000	13.010461
353.000000	10.890634
352.000000	8.829159
351.000000	6.923089
350.000000	5.244390
349.000000	3.773000
348.000000	2.607674
347.000000	1.680803
346.000000	1.018684
345.000000	0.562162
344.000000	0.287709
343.000000	0.134417
342.000000	0.061699
341.000000	0.031061
340.000000	0.022541
339.000000	0.022002
338.000000	0.017648
337.000000	0.023664
336.000000	0.023673
335.000000	0.022733
334.000000	0.018074
333.000000	0.023920
332.000000	0.025387
331.000000	0.028132
330.000000	0.035330
329.000000	0.030911
328.000000	0.028508
327.000000	0.024932
326.000000	0.025920
325.000000	0.031232
