PE UV       SUBTECH     SPECTRUM    ASCII       PEDS        4.00        
   -1
100% or 0 Absorbance Baseline.Correction.Raw.asc
18/05/03
15:51:56.00
18/05/03
15:51:56.00
Administrator

325.000000
1
Lambda 850
850L1710193
PerkinElmer UV WinLab 6.4.0.973 / 2.02.06 Lambda 800 UV/VIS, Jan 28 2016 16:58:34

0
0
2
0
0
UV/VIS
0
1
1
RBeamAtt,SBeamAtt,60mm sphere
0
0
0
0
Fix
 
0
0.16
0
0
0
 
 
 
0
 
0
319.2
0
Front
100
 
S:100 R:100
 
0
0
0
 
0
 
 
 
0
 
 
0
0
0
0
0
 
 
 
 
0
0


0
0
#HDR
-1
-1
#GR
nm
%T
1.0
0.0
900.000000
-1.000000
576
8
119.866900
102.324200
#DATA
900.000000	111.496200
899.000000	111.057900
898.000000	108.081500
897.000000	115.338900
896.000000	108.469200
895.000000	113.398000
894.000000	115.885700
893.000000	114.566100
892.000000	112.305500
891.000000	116.157600
890.000000	113.972200
889.000000	115.201800
888.000000	117.042100
887.000000	113.348000
886.000000	113.708800
885.000000	114.705400
884.000000	114.064800
883.000000	113.231500
882.000000	114.840700
881.000000	115.392100
880.000000	114.782900
879.000000	115.991300
878.000000	114.891100
877.000000	114.142100
876.000000	115.025200
875.000000	113.942600
874.000000	116.743800
873.000000	114.664100
872.000000	115.574700
871.000000	116.439100
870.000000	116.585100
869.000000	117.251800
868.000000	116.094800
867.000000	116.019300
866.000000	116.225400
865.000000	116.295900
864.000000	115.948200
863.000000	116.735600
862.000000	116.989900
861.000000	117.649300
860.000000	118.536600
859.000000	116.515500
858.000000	116.530000
857.000000	117.464300
856.000000	117.564200
855.000000	117.707800
854.000000	118.005900
853.000000	118.163700
852.000000	117.963800
851.000000	118.228700
850.000000	117.961300
849.000000	118.077900
848.000000	117.626800
847.000000	118.155400
846.000000	118.073200
845.000000	118.106600
844.000000	118.265500
843.000000	118.862200
842.000000	119.200900
841.000000	118.748600
840.000000	118.804800
839.000000	118.779600
838.000000	119.072200
837.000000	119.233400
836.000000	119.101100
835.000000	118.821200
834.000000	118.974200
833.000000	118.910600
832.000000	119.001500
831.000000	119.130900
830.000000	119.230200
829.000000	119.042000
828.000000	118.942700
827.000000	119.224200
826.000000	119.598100
825.000000	119.421600
824.000000	119.376300
823.000000	119.504600
822.000000	119.476200
821.000000	119.430700
820.000000	119.535800
819.000000	119.435000
818.000000	119.298400
817.000000	119.592100
816.000000	119.866900
815.000000	119.850800
814.000000	119.716700
813.000000	119.447100
812.000000	119.486600
811.000000	119.653200
810.000000	119.449300
809.000000	119.259300
808.000000	119.390100
807.000000	119.494400
806.000000	119.463600
805.000000	119.347600
804.000000	119.176300
803.000000	119.238100
802.000000	119.280400
801.000000	119.228700
800.000000	119.249400
799.000000	119.330200
798.000000	119.174100
797.000000	119.142900
796.000000	119.216500
795.000000	119.209400
794.000000	119.001800
793.000000	118.833600
792.000000	118.686300
791.000000	118.710400
790.000000	118.749500
789.000000	118.788800
788.000000	118.718800
787.000000	118.624800
786.000000	118.574800
785.000000	118.558900
784.000000	118.716800
783.000000	118.545900
782.000000	118.452700
781.000000	118.628600
780.000000	118.463700
779.000000	118.313600
778.000000	118.322600
777.000000	118.330500
776.000000	118.277800
775.000000	118.268200
774.000000	118.392600
773.000000	118.229100
772.000000	117.993200
771.000000	118.077800
770.000000	118.010100
769.000000	117.876600
768.000000	117.902500
767.000000	117.971200
766.000000	117.966000
765.000000	117.876900
764.000000	117.818800
763.000000	117.853000
762.000000	117.749300
761.000000	117.631600
760.000000	117.647500
759.000000	117.704100
758.000000	117.685000
757.000000	117.611200
756.000000	117.513500
755.000000	117.409000
754.000000	117.467100
753.000000	117.426300
752.000000	117.424400
751.000000	117.466300
750.000000	117.312700
749.000000	117.220400
748.000000	117.205100
747.000000	117.139700
746.000000	117.007400
745.000000	116.889100
744.000000	116.995400
743.000000	116.997800
742.000000	116.926400
741.000000	116.898500
740.000000	116.954900
739.000000	116.930300
738.000000	116.881200
737.000000	116.829000
736.000000	116.684000
735.000000	116.740700
734.000000	116.816000
733.000000	116.769500
732.000000	116.665600
731.000000	116.523100
730.000000	116.490900
729.000000	116.474600
728.000000	116.381800
727.000000	116.346400
726.000000	116.457200
725.000000	116.279300
724.000000	116.272500
723.000000	116.279600
722.000000	116.284400
721.000000	116.185000
720.000000	116.170500
719.000000	116.119400
718.000000	116.161600
717.000000	116.259100
716.000000	116.060500
715.000000	116.065800
714.000000	116.060400
713.000000	115.916000
712.000000	115.850300
711.000000	115.778200
710.000000	115.754200
709.000000	115.745300
708.000000	115.727600
707.000000	115.775600
706.000000	115.750500
705.000000	115.698600
704.000000	115.806200
703.000000	115.720200
702.000000	115.665900
701.000000	115.559100
700.000000	115.651800
699.000000	115.527300
698.000000	115.483100
697.000000	115.557300
696.000000	115.396600
695.000000	115.445200
694.000000	115.426900
693.000000	115.446600
692.000000	115.354000
691.000000	115.451300
690.000000	115.383400
689.000000	115.376300
688.000000	115.410500
687.000000	115.426400
686.000000	115.492700
685.000000	115.283100
684.000000	115.254100
683.000000	115.248300
682.000000	115.180100
681.000000	115.295100
680.000000	115.342000
679.000000	115.188100
678.000000	115.236900
677.000000	115.279300
676.000000	115.198400
675.000000	115.227000
674.000000	115.200300
673.000000	115.097800
672.000000	115.141500
671.000000	115.120700
670.000000	115.025400
669.000000	114.954600
668.000000	115.046900
667.000000	114.923500
666.000000	114.943400
665.000000	114.974000
664.000000	114.883500
663.000000	114.949500
662.000000	114.878100
661.000000	114.897600
660.000000	114.824700
659.000000	114.903600
658.000000	114.801900
657.000000	114.790700
656.000000	114.845200
655.000000	114.850600
654.000000	114.728200
653.000000	114.761000
652.000000	114.737200
651.000000	114.651200
650.000000	114.665000
649.000000	114.737700
648.000000	114.652300
647.000000	114.648700
646.000000	114.640300
645.000000	114.591900
644.000000	114.635000
643.000000	114.595200
642.000000	114.603900
641.000000	114.549200
640.000000	114.575600
639.000000	114.528600
638.000000	114.559300
637.000000	114.479600
636.000000	114.492200
635.000000	114.539400
634.000000	114.501200
633.000000	114.489800
632.000000	114.455300
631.000000	114.493900
630.000000	114.404000
629.000000	114.312000
628.000000	114.326700
627.000000	114.479300
626.000000	114.367900
625.000000	114.407600
624.000000	114.365400
623.000000	114.368900
622.000000	114.311700
621.000000	114.304800
620.000000	114.295200
619.000000	114.296200
618.000000	114.259500
617.000000	114.276900
616.000000	114.293400
615.000000	114.300200
614.000000	114.263800
613.000000	114.212900
612.000000	114.254700
611.000000	114.221600
610.000000	114.215100
609.000000	114.208700
608.000000	114.171800
607.000000	114.289600
606.000000	114.268800
605.000000	114.197100
604.000000	114.125200
603.000000	114.246100
602.000000	114.141200
601.000000	114.099000
600.000000	114.087100
599.000000	114.160000
598.000000	114.128100
597.000000	114.131100
596.000000	114.142500
595.000000	114.089500
594.000000	114.087200
593.000000	114.032900
592.000000	114.115900
591.000000	114.147400
590.000000	114.131000
589.000000	114.115200
588.000000	114.137300
587.000000	114.075900
586.000000	114.100400
585.000000	114.083700
584.000000	114.086200
583.000000	114.117100
582.000000	114.094100
581.000000	114.083500
580.000000	114.048400
579.000000	114.026200
578.000000	114.071000
577.000000	114.122700
576.000000	114.140000
575.000000	114.110700
574.000000	114.119500
573.000000	114.056000
572.000000	114.051100
571.000000	114.100500
570.000000	114.031400
569.000000	114.015600
568.000000	114.058800
567.000000	114.071200
566.000000	114.009000
565.000000	113.991400
564.000000	113.995800
563.000000	114.040000
562.000000	114.165500
561.000000	114.327700
560.000000	114.272400
559.000000	114.267200
558.000000	114.335300
557.000000	114.353200
556.000000	114.334700
555.000000	114.343000
554.000000	114.308500
553.000000	114.292200
552.000000	114.272800
551.000000	114.297800
550.000000	114.282800
549.000000	114.337100
548.000000	114.403700
547.000000	114.399100
546.000000	114.394100
545.000000	114.429600
544.000000	114.446500
543.000000	114.461600
542.000000	114.428400
541.000000	114.457000
540.000000	114.459500
539.000000	114.487800
538.000000	114.534400
537.000000	114.582900
536.000000	114.594000
535.000000	114.609200
534.000000	114.642200
533.000000	114.684600
532.000000	114.695900
531.000000	114.696700
530.000000	114.731000
529.000000	114.743900
528.000000	114.772800
527.000000	114.834900
526.000000	114.876200
525.000000	114.869200
524.000000	114.868400
523.000000	114.871200
522.000000	114.903000
521.000000	114.916100
520.000000	114.884000
519.000000	114.864600
518.000000	114.852100
517.000000	114.818800
516.000000	114.752300
515.000000	114.646600
514.000000	114.553100
513.000000	114.456800
512.000000	114.293100
511.000000	114.145900
510.000000	113.998600
509.000000	113.785200
508.000000	113.585500
507.000000	113.402100
506.000000	113.217600
505.000000	113.023500
504.000000	112.862100
503.000000	112.742300
502.000000	112.620300
501.000000	112.543600
500.000000	112.518200
499.000000	112.460700
498.000000	112.456100
497.000000	112.489400
496.000000	112.554600
495.000000	112.660300
494.000000	112.694900
493.000000	112.736600
492.000000	112.840400
491.000000	112.945200
490.000000	113.023500
489.000000	113.115200
488.000000	113.200400
487.000000	113.259900
486.000000	113.383300
485.000000	113.464500
484.000000	113.627800
483.000000	113.823000
482.000000	114.130000
481.000000	114.368400
480.000000	114.501300
479.000000	114.470800
478.000000	114.349000
477.000000	114.276300
476.000000	114.259000
475.000000	114.241600
474.000000	114.276300
473.000000	114.252900
472.000000	114.178700
471.000000	114.153200
470.000000	114.146700
469.000000	114.044900
468.000000	113.898100
467.000000	113.768100
466.000000	113.643400
465.000000	113.505800
464.000000	113.351300
463.000000	113.207400
462.000000	113.064500
461.000000	112.927800
460.000000	112.851800
459.000000	112.787800
458.000000	112.713400
457.000000	112.685900
456.000000	112.613400
455.000000	112.566900
454.000000	112.644200
453.000000	112.675700
452.000000	112.621300
451.000000	112.663300
450.000000	112.707600
449.000000	112.688600
448.000000	112.747800
447.000000	112.781200
446.000000	112.726900
445.000000	112.775300
444.000000	112.977100
443.000000	113.136500
442.000000	113.174700
441.000000	113.058500
440.000000	113.015800
439.000000	112.966400
438.000000	112.974800
437.000000	113.001300
436.000000	112.976300
435.000000	112.938300
434.000000	112.847900
433.000000	112.801100
432.000000	112.740500
431.000000	112.782700
430.000000	112.781300
429.000000	112.742300
428.000000	112.657900
427.000000	112.591800
426.000000	112.607800
425.000000	112.508400
424.000000	112.503700
423.000000	112.531000
422.000000	112.511600
421.000000	112.408400
420.000000	112.329300
419.000000	112.232400
418.000000	112.157700
417.000000	112.090500
416.000000	111.980900
415.000000	111.883500
414.000000	111.690400
413.000000	111.521900
412.000000	111.287600
411.000000	111.035300
410.000000	110.787400
409.000000	110.520100
408.000000	110.406000
407.000000	110.140900
406.000000	110.014200
405.000000	109.613400
404.000000	109.381200
403.000000	109.073700
402.000000	108.847800
401.000000	108.614900
400.000000	108.244400
399.000000	108.087300
398.000000	107.780500
397.000000	107.552800
396.000000	107.422600
395.000000	107.111700
394.000000	106.991800
393.000000	106.810800
392.000000	106.643800
391.000000	106.545600
390.000000	106.444300
389.000000	106.345900
388.000000	106.114900
387.000000	106.111300
386.000000	105.891400
385.000000	105.855600
384.000000	105.639700
383.000000	105.753300
382.000000	105.617800
381.000000	105.540300
380.000000	105.436700
379.000000	105.647700
378.000000	107.067900
377.000000	106.910100
376.000000	106.780100
375.000000	106.310500
374.000000	106.310100
373.000000	106.108800
372.000000	105.987400
371.000000	105.793000
370.000000	105.562200
369.000000	105.431100
368.000000	105.280400
367.000000	105.197800
366.000000	105.000500
365.000000	104.879300
364.000000	104.982900
363.000000	104.947600
362.000000	104.744700
361.000000	104.635300
360.000000	104.670100
359.000000	104.611600
358.000000	104.541000
357.000000	104.513100
356.000000	104.334500
355.000000	104.341500
354.000000	104.434000
353.000000	104.329600
352.000000	104.027700
351.000000	104.003200
350.000000	104.054700
349.000000	104.032400
348.000000	103.899700
347.000000	103.883600
346.000000	103.819500
345.000000	103.548500
344.000000	103.620600
343.000000	103.667300
342.000000	103.701000
341.000000	103.393600
340.000000	103.401100
339.000000	103.394300
338.000000	103.310000
337.000000	103.280600
336.000000	103.042900
335.000000	103.037800
334.000000	103.139000
333.000000	102.965900
332.000000	102.870500
331.000000	102.709900
330.000000	102.652800
329.000000	102.633000
328.000000	102.629500
327.000000	102.553800
326.000000	102.386900
325.000000	102.324200
