PE UV       SUBTECH     SPECTRUM    ASCII       PEDS        4.00        
   -1
J23.Sample.Raw.asc
18/05/03
13:54:39.00
18/05/03
13:54:39.00
Administrator
longitudinal
325.000000
1
Lambda 850
850L1710193
PerkinElmer UV WinLab 6.4.0.973 / 2.02.06 Lambda 800 UV/VIS, Jan 28 2016 16:58:34

0
0
2
0
0
UV/VIS
1
1
1
RBeamAtt,SBeamAtt,60mm sphere
0
0
0
0
Fix
 
0
0.16
0
0
0
 
 
 
0
 
0
319.2
0
Front
100
 
S:100 R:100
 
0
0
0
 
0
 
 
 
0
 
 
0
0
0
0
0
 
 
 
 
0
0


0
0
#HDR
-1
-1
#GR
nm
%T
1.0
0.0
900.000000
-1.000000
576
8
76.252269
0.014651
#DATA
900.000000	71.552546
899.000000	67.879339
898.000000	70.666632
897.000000	70.344725
896.000000	71.899632
895.000000	69.262272
894.000000	76.252269
893.000000	72.233283
892.000000	68.774022
891.000000	70.770476
890.000000	69.157969
889.000000	69.789632
888.000000	68.597752
887.000000	69.409876
886.000000	71.095930
885.000000	70.117946
884.000000	70.075297
883.000000	69.481331
882.000000	70.430898
881.000000	70.585068
880.000000	69.003400
879.000000	70.477356
878.000000	72.299617
877.000000	68.953129
876.000000	69.349419
875.000000	69.889349
874.000000	69.292576
873.000000	69.180164
872.000000	69.194559
871.000000	68.631509
870.000000	69.097923
869.000000	69.776028
868.000000	70.077453
867.000000	70.043370
866.000000	68.996207
865.000000	69.136078
864.000000	69.821583
863.000000	68.900828
862.000000	69.352520
861.000000	69.273670
860.000000	68.407805
859.000000	68.118991
858.000000	68.736411
857.000000	68.719918
856.000000	69.033657
855.000000	68.855814
854.000000	68.734902
853.000000	68.511691
852.000000	68.149154
851.000000	68.609787
850.000000	68.381135
849.000000	68.066492
848.000000	68.227072
847.000000	67.836843
846.000000	67.602018
845.000000	67.718932
844.000000	67.742134
843.000000	67.476321
842.000000	67.673153
841.000000	67.524906
840.000000	67.106116
839.000000	66.936464
838.000000	67.283707
837.000000	67.056475
836.000000	66.763095
835.000000	66.722755
834.000000	66.864616
833.000000	66.648149
832.000000	66.354235
831.000000	66.440632
830.000000	66.475044
829.000000	66.253595
828.000000	66.196335
827.000000	66.141323
826.000000	66.131298
825.000000	65.922341
824.000000	65.825779
823.000000	65.674005
822.000000	65.593006
821.000000	65.424589
820.000000	65.436859
819.000000	65.434763
818.000000	65.377137
817.000000	65.480772
816.000000	65.437625
815.000000	65.123482
814.000000	65.049843
813.000000	64.995560
812.000000	64.954964
811.000000	64.903539
810.000000	64.754271
809.000000	64.723759
808.000000	64.763247
807.000000	64.627347
806.000000	64.517188
805.000000	64.421119
804.000000	64.267893
803.000000	64.236707
802.000000	64.340459
801.000000	64.388559
800.000000	64.220676
799.000000	64.138175
798.000000	64.173417
797.000000	64.172214
796.000000	63.856045
795.000000	63.698566
794.000000	63.616276
793.000000	63.563115
792.000000	63.632206
791.000000	63.545785
790.000000	63.542172
789.000000	63.473288
788.000000	63.450037
787.000000	63.320591
786.000000	63.203307
785.000000	63.109934
784.000000	62.946893
783.000000	62.903010
782.000000	62.855110
781.000000	62.693239
780.000000	62.560545
779.000000	62.593743
778.000000	62.578624
777.000000	62.415144
776.000000	62.453278
775.000000	62.324369
774.000000	62.101731
773.000000	62.060267
772.000000	62.010985
771.000000	61.961563
770.000000	61.883294
769.000000	61.876370
768.000000	61.790669
767.000000	61.687376
766.000000	61.618683
765.000000	61.457654
764.000000	61.426669
763.000000	61.279161
762.000000	61.204029
761.000000	61.174642
760.000000	61.071188
759.000000	61.128072
758.000000	61.106795
757.000000	60.945737
756.000000	60.807933
755.000000	60.659731
754.000000	60.610748
753.000000	60.569090
752.000000	60.515356
751.000000	60.453959
750.000000	60.457752
749.000000	60.384194
748.000000	60.208104
747.000000	60.040930
746.000000	59.959988
745.000000	59.929669
744.000000	59.901850
743.000000	59.879939
742.000000	59.873167
741.000000	59.744632
740.000000	59.639818
739.000000	59.665324
738.000000	59.556189
737.000000	59.507905
736.000000	59.400724
735.000000	59.269974
734.000000	59.291918
733.000000	59.213970
732.000000	59.212903
731.000000	59.155143
730.000000	59.104044
729.000000	59.071284
728.000000	59.027486
727.000000	58.960034
726.000000	58.904232
725.000000	58.795735
724.000000	58.744836
723.000000	58.685428
722.000000	58.680250
721.000000	58.709357
720.000000	58.588105
719.000000	58.580263
718.000000	58.534228
717.000000	58.441321
716.000000	58.357225
715.000000	58.373789
714.000000	58.339091
713.000000	58.198595
712.000000	58.228810
711.000000	58.155929
710.000000	58.142353
709.000000	58.099721
708.000000	58.065756
707.000000	58.054080
706.000000	57.912026
705.000000	57.878526
704.000000	57.841104
703.000000	57.786732
702.000000	57.683932
701.000000	57.691729
700.000000	57.664519
699.000000	57.607196
698.000000	57.552515
697.000000	57.525555
696.000000	57.395747
695.000000	57.355381
694.000000	57.345719
693.000000	57.233235
692.000000	57.149876
691.000000	57.111291
690.000000	57.045904
689.000000	56.926200
688.000000	56.901492
687.000000	56.801951
686.000000	56.673694
685.000000	56.624223
684.000000	56.604253
683.000000	56.485890
682.000000	56.362101
681.000000	56.321525
680.000000	56.244873
679.000000	56.078669
678.000000	56.096018
677.000000	55.980755
676.000000	55.806538
675.000000	55.758552
674.000000	55.664995
673.000000	55.518762
672.000000	55.421833
671.000000	55.265145
670.000000	55.151285
669.000000	55.013149
668.000000	54.905383
667.000000	54.804893
666.000000	54.696949
665.000000	54.603139
664.000000	54.385191
663.000000	54.354015
662.000000	54.198687
661.000000	54.049597
660.000000	53.924446
659.000000	53.801814
658.000000	53.562799
657.000000	53.481532
656.000000	53.379848
655.000000	53.121100
654.000000	52.981992
653.000000	52.793018
652.000000	52.659195
651.000000	52.492721
650.000000	52.339305
649.000000	52.185334
648.000000	51.935028
647.000000	51.834246
646.000000	51.621849
645.000000	51.474902
644.000000	51.173892
643.000000	51.052160
642.000000	50.941437
641.000000	50.705935
640.000000	50.532445
639.000000	50.319792
638.000000	50.219614
637.000000	49.929138
636.000000	49.756990
635.000000	49.489082
634.000000	49.348967
633.000000	49.196582
632.000000	48.949224
631.000000	48.766035
630.000000	48.569635
629.000000	48.366455
628.000000	48.123885
627.000000	47.914418
626.000000	47.711445
625.000000	47.565951
624.000000	47.325403
623.000000	47.089161
622.000000	46.871928
621.000000	46.722016
620.000000	46.489902
619.000000	46.305809
618.000000	46.075637
617.000000	45.852905
616.000000	45.656626
615.000000	45.463823
614.000000	45.259794
613.000000	44.995070
612.000000	44.830492
611.000000	44.635313
610.000000	44.385940
609.000000	44.214020
608.000000	43.942223
607.000000	43.789918
606.000000	43.571720
605.000000	43.374849
604.000000	43.127509
603.000000	42.903746
602.000000	42.763694
601.000000	42.527764
600.000000	42.302732
599.000000	42.083733
598.000000	41.909585
597.000000	41.737393
596.000000	41.524050
595.000000	41.288415
594.000000	41.107879
593.000000	40.871611
592.000000	40.700149
591.000000	40.468008
590.000000	40.290893
589.000000	40.106351
588.000000	39.888630
587.000000	39.704697
586.000000	39.520989
585.000000	39.345260
584.000000	39.162715
583.000000	38.975161
582.000000	38.757387
581.000000	38.550422
580.000000	38.396441
579.000000	38.232413
578.000000	38.037528
577.000000	37.823914
576.000000	37.652740
575.000000	37.501589
574.000000	37.324837
573.000000	37.128671
572.000000	36.941958
571.000000	36.806543
570.000000	36.630695
569.000000	36.464014
568.000000	36.320394
567.000000	36.134980
566.000000	35.983310
565.000000	35.814480
564.000000	35.679218
563.000000	35.511527
562.000000	35.335241
561.000000	35.169023
560.000000	35.020572
559.000000	34.889896
558.000000	34.716733
557.000000	34.567385
556.000000	34.440031
555.000000	34.303087
554.000000	34.170418
553.000000	34.012408
552.000000	33.886759
551.000000	33.748462
550.000000	33.610221
549.000000	33.464676
548.000000	33.328732
547.000000	33.215332
546.000000	33.098294
545.000000	32.974579
544.000000	32.866778
543.000000	32.732069
542.000000	32.611273
541.000000	32.508144
540.000000	32.395922
539.000000	32.290439
538.000000	32.174429
537.000000	32.068624
536.000000	31.953563
535.000000	31.824557
534.000000	31.735573
533.000000	31.634369
532.000000	31.534435
531.000000	31.449740
530.000000	31.351620
529.000000	31.262035
528.000000	31.167657
527.000000	31.079557
526.000000	30.993279
525.000000	30.907076
524.000000	30.826672
523.000000	30.751060
522.000000	30.654941
521.000000	30.579027
520.000000	30.502847
519.000000	30.424208
518.000000	30.351021
517.000000	30.269979
516.000000	30.200657
515.000000	30.137168
514.000000	30.062385
513.000000	29.989836
512.000000	29.922751
511.000000	29.864357
510.000000	29.804507
509.000000	29.728848
508.000000	29.673241
507.000000	29.614755
506.000000	29.555372
505.000000	29.509350
504.000000	29.446661
503.000000	29.407773
502.000000	29.370148
501.000000	29.318163
500.000000	29.275368
499.000000	29.230388
498.000000	29.183895
497.000000	29.156176
496.000000	29.115670
495.000000	29.064941
494.000000	29.024197
493.000000	28.977287
492.000000	28.924117
491.000000	28.907920
490.000000	28.896912
489.000000	28.831229
488.000000	28.781298
487.000000	28.746901
486.000000	28.716722
485.000000	28.714613
484.000000	28.668156
483.000000	28.593194
482.000000	28.542312
481.000000	28.508772
480.000000	28.493611
479.000000	28.455194
478.000000	28.422804
477.000000	28.403646
476.000000	28.375753
475.000000	28.344798
474.000000	28.307365
473.000000	28.270550
472.000000	28.241412
471.000000	28.208382
470.000000	28.184217
469.000000	28.141043
468.000000	28.123499
467.000000	28.083345
466.000000	28.047614
465.000000	28.014507
464.000000	28.011543
463.000000	27.989251
462.000000	27.955278
461.000000	27.913903
460.000000	27.888712
459.000000	27.857003
458.000000	27.816707
457.000000	27.787257
456.000000	27.772879
455.000000	27.723362
454.000000	27.666965
453.000000	27.645003
452.000000	27.602727
451.000000	27.574034
450.000000	27.531154
449.000000	27.470657
448.000000	27.403917
447.000000	27.364788
446.000000	27.331972
445.000000	27.261189
444.000000	27.204465
443.000000	27.139419
442.000000	27.104195
441.000000	27.060940
440.000000	26.979054
439.000000	26.930378
438.000000	26.877086
437.000000	26.806552
436.000000	26.757722
435.000000	26.678067
434.000000	26.619758
433.000000	26.555274
432.000000	26.453046
431.000000	26.379064
430.000000	26.324406
429.000000	26.240513
428.000000	26.146901
427.000000	26.073120
426.000000	25.997278
425.000000	25.916099
424.000000	25.822886
423.000000	25.735607
422.000000	25.692225
421.000000	25.582486
420.000000	25.492846
419.000000	25.412717
418.000000	25.331146
417.000000	25.225557
416.000000	25.096604
415.000000	25.007845
414.000000	24.922578
413.000000	24.827972
412.000000	24.711104
411.000000	24.576447
410.000000	24.479944
409.000000	24.399310
408.000000	24.247842
407.000000	24.171019
406.000000	24.033474
405.000000	23.952425
404.000000	23.787337
403.000000	23.695383
402.000000	23.556194
401.000000	23.443601
400.000000	23.376023
399.000000	23.230405
398.000000	23.056452
397.000000	22.924845
396.000000	22.762437
395.000000	22.658472
394.000000	22.550251
393.000000	22.389202
392.000000	22.196735
391.000000	22.093701
390.000000	22.017843
389.000000	21.799353
388.000000	21.700139
387.000000	21.537909
386.000000	21.404618
385.000000	21.223740
384.000000	21.137863
383.000000	20.962642
382.000000	20.826788
381.000000	20.702539
380.000000	20.566849
379.000000	20.427333
378.000000	20.132476
377.000000	20.015749
376.000000	19.810510
375.000000	19.716557
374.000000	19.568635
373.000000	19.330391
372.000000	19.198477
371.000000	18.980334
370.000000	18.776246
369.000000	18.487221
368.000000	18.230789
367.000000	17.861894
366.000000	17.363655
365.000000	16.932027
364.000000	16.385417
363.000000	15.793145
362.000000	15.069000
361.000000	14.314660
360.000000	13.427790
359.000000	12.496012
358.000000	11.466628
357.000000	10.347554
356.000000	9.185931
355.000000	7.917450
354.000000	6.690301
353.000000	5.462796
352.000000	4.326522
351.000000	3.258818
350.000000	2.353407
349.000000	1.610978
348.000000	1.046724
347.000000	0.617104
346.000000	0.348790
345.000000	0.177764
344.000000	0.086232
343.000000	0.044253
342.000000	0.028578
341.000000	0.022599
340.000000	0.020198
339.000000	0.023785
338.000000	0.023027
337.000000	0.022736
336.000000	0.022243
335.000000	0.023153
334.000000	0.014742
333.000000	0.014651
332.000000	0.023989
331.000000	0.024673
330.000000	0.031719
329.000000	0.029988
328.000000	0.027475
327.000000	0.030906
326.000000	0.028522
325.000000	0.036842
