PE UV       SUBTECH     SPECTRUM    ASCII       PEDS        4.00        
   -1
J43.Sample.Raw.asc
18/05/03
14:22:22.00
18/05/03
14:22:22.00
Administrator
longitudinal
325.000000
1
Lambda 850
850L1710193
PerkinElmer UV WinLab 6.4.0.973 / 2.02.06 Lambda 800 UV/VIS, Jan 28 2016 16:58:34

0
0
2
0
0
UV/VIS
1
1
1
RBeamAtt,SBeamAtt,60mm sphere
0
0
0
0
Fix
 
0
0.16
0
0
0
 
 
 
0
 
0
319.2
0
Front
100
 
S:100 R:100
 
0
0
0
 
0
 
 
 
0
 
 
0
0
0
0
0
 
 
 
 
0
0


0
0
#HDR
-1
-1
#GR
nm
%T
1.0
0.0
900.000000
-1.000000
576
8
77.581827
0.016641
#DATA
900.000000	73.498170
899.000000	74.650645
898.000000	74.922984
897.000000	73.156362
896.000000	77.581827
895.000000	74.178221
894.000000	76.828794
893.000000	76.352901
892.000000	71.343249
891.000000	75.055549
890.000000	73.898214
889.000000	75.351791
888.000000	72.001199
887.000000	74.091197
886.000000	73.486252
885.000000	71.876780
884.000000	75.761443
883.000000	73.949498
882.000000	74.213561
881.000000	73.299071
880.000000	73.404419
879.000000	73.987514
878.000000	73.340044
877.000000	74.631244
876.000000	74.334518
875.000000	74.614157
874.000000	74.118746
873.000000	73.345903
872.000000	74.635146
871.000000	74.222046
870.000000	73.751128
869.000000	73.881569
868.000000	74.546041
867.000000	74.571062
866.000000	74.276195
865.000000	74.228067
864.000000	74.320147
863.000000	74.095426
862.000000	73.662163
861.000000	74.488964
860.000000	72.868617
859.000000	73.751023
858.000000	73.642981
857.000000	73.513867
856.000000	73.795823
855.000000	73.742333
854.000000	73.823295
853.000000	73.604647
852.000000	73.745179
851.000000	73.716790
850.000000	73.591081
849.000000	73.370840
848.000000	73.409305
847.000000	73.272463
846.000000	73.337593
845.000000	73.110055
844.000000	73.055498
843.000000	72.841081
842.000000	73.113923
841.000000	73.269141
840.000000	72.734638
839.000000	73.058108
838.000000	73.237347
837.000000	73.240091
836.000000	72.948174
835.000000	72.533649
834.000000	72.860993
833.000000	72.795376
832.000000	72.254636
831.000000	72.651027
830.000000	72.613658
829.000000	72.323536
828.000000	72.412494
827.000000	72.426129
826.000000	72.263366
825.000000	72.068322
824.000000	72.375824
823.000000	72.341374
822.000000	72.320456
821.000000	72.144533
820.000000	72.122531
819.000000	72.154754
818.000000	72.099521
817.000000	72.208400
816.000000	72.259590
815.000000	72.006864
814.000000	72.153011
813.000000	72.198474
812.000000	72.106510
811.000000	72.032663
810.000000	71.977545
809.000000	71.982982
808.000000	72.120258
807.000000	71.887031
806.000000	71.853314
805.000000	71.822255
804.000000	71.636845
803.000000	71.826392
802.000000	71.984028
801.000000	71.911807
800.000000	71.788740
799.000000	71.772429
798.000000	71.903913
797.000000	72.070875
796.000000	71.790688
795.000000	71.820564
794.000000	71.767629
793.000000	71.759036
792.000000	71.969470
791.000000	71.809205
790.000000	71.784797
789.000000	71.740797
788.000000	71.766992
787.000000	71.749017
786.000000	71.616030
785.000000	71.535418
784.000000	71.493587
783.000000	71.469522
782.000000	71.484088
781.000000	71.508112
780.000000	71.483155
779.000000	71.534439
778.000000	71.537901
777.000000	71.534147
776.000000	71.472455
775.000000	71.369156
774.000000	71.362408
773.000000	71.248081
772.000000	71.291554
771.000000	71.349183
770.000000	71.267337
769.000000	71.228910
768.000000	71.222459
767.000000	71.261970
766.000000	71.256429
765.000000	71.087309
764.000000	71.067946
763.000000	71.059704
762.000000	71.117256
761.000000	71.143341
760.000000	71.035075
759.000000	71.136060
758.000000	71.102804
757.000000	70.993845
756.000000	70.899444
755.000000	70.909682
754.000000	70.940828
753.000000	70.951201
752.000000	70.924593
751.000000	70.871943
750.000000	70.905434
749.000000	70.981270
748.000000	70.805454
747.000000	70.701864
746.000000	70.673162
745.000000	70.691583
744.000000	70.711227
743.000000	70.681576
742.000000	70.692748
741.000000	70.630081
740.000000	70.631281
739.000000	70.668898
738.000000	70.617643
737.000000	70.613379
736.000000	70.656240
735.000000	70.475421
734.000000	70.529704
733.000000	70.479319
732.000000	70.470564
731.000000	70.505013
730.000000	70.437682
729.000000	70.392685
728.000000	70.352068
727.000000	70.356350
726.000000	70.425971
725.000000	70.368203
724.000000	70.200720
723.000000	70.184194
722.000000	70.321039
721.000000	70.379561
720.000000	70.244969
719.000000	70.252676
718.000000	70.235335
717.000000	70.209183
716.000000	70.081084
715.000000	70.114981
714.000000	70.159708
713.000000	70.069949
712.000000	70.129619
711.000000	70.141245
710.000000	70.137246
709.000000	70.118098
708.000000	70.110717
707.000000	70.067695
706.000000	69.941738
705.000000	69.949901
704.000000	69.936155
703.000000	69.979464
702.000000	69.899978
701.000000	69.863403
700.000000	69.814604
699.000000	69.808669
698.000000	69.806128
697.000000	69.840965
696.000000	69.732703
695.000000	69.733350
694.000000	69.700600
693.000000	69.681651
692.000000	69.634766
691.000000	69.539305
690.000000	69.500555
689.000000	69.384041
688.000000	69.493802
687.000000	69.423066
686.000000	69.482435
685.000000	69.365848
684.000000	69.414560
683.000000	69.402070
682.000000	69.323803
681.000000	69.316405
680.000000	69.210363
679.000000	69.206496
678.000000	69.145858
677.000000	69.128922
676.000000	69.070442
675.000000	69.059728
674.000000	69.091309
673.000000	69.033778
672.000000	69.072306
671.000000	68.952931
670.000000	68.980971
669.000000	68.906099
668.000000	68.831185
667.000000	68.883687
666.000000	68.776412
665.000000	68.873375
664.000000	68.754812
663.000000	68.758111
662.000000	68.681475
661.000000	68.636645
660.000000	68.647191
659.000000	68.624268
658.000000	68.478252
657.000000	68.547253
656.000000	68.567683
655.000000	68.437899
654.000000	68.382153
653.000000	68.374883
652.000000	68.332570
651.000000	68.304364
650.000000	68.285260
649.000000	68.221027
648.000000	68.140949
647.000000	68.109455
646.000000	68.093849
645.000000	68.068591
644.000000	67.942892
643.000000	67.856283
642.000000	67.925348
641.000000	67.869448
640.000000	67.776284
639.000000	67.743231
638.000000	67.698028
637.000000	67.649327
636.000000	67.643368
635.000000	67.482494
634.000000	67.458979
633.000000	67.441419
632.000000	67.371785
631.000000	67.362783
630.000000	67.385223
629.000000	67.215304
628.000000	67.180991
627.000000	67.129061
626.000000	67.030990
625.000000	67.146398
624.000000	67.043300
623.000000	66.932507
622.000000	66.912163
621.000000	66.879353
620.000000	66.743069
619.000000	66.724638
618.000000	66.635255
617.000000	66.614135
616.000000	66.535825
615.000000	66.489438
614.000000	66.499085
613.000000	66.397148
612.000000	66.378708
611.000000	66.349500
610.000000	66.247522
609.000000	66.244313
608.000000	66.135476
607.000000	66.086705
606.000000	66.045183
605.000000	65.929872
604.000000	65.923160
603.000000	65.833916
602.000000	65.796668
601.000000	65.732794
600.000000	65.704618
599.000000	65.577215
598.000000	65.545546
597.000000	65.503527
596.000000	65.457052
595.000000	65.369220
594.000000	65.309719
593.000000	65.261347
592.000000	65.216069
591.000000	65.130828
590.000000	65.115572
589.000000	65.113169
588.000000	64.982527
587.000000	64.920860
586.000000	64.890226
585.000000	64.848255
584.000000	64.803471
583.000000	64.706434
582.000000	64.627110
581.000000	64.563851
580.000000	64.520283
579.000000	64.483721
578.000000	64.414095
577.000000	64.364264
576.000000	64.289507
575.000000	64.212474
574.000000	64.198989
573.000000	64.115705
572.000000	64.037718
571.000000	64.041008
570.000000	63.984069
569.000000	63.935838
568.000000	63.872608
567.000000	63.846244
566.000000	63.793716
565.000000	63.720552
564.000000	63.674310
563.000000	63.630271
562.000000	63.531747
561.000000	63.478615
560.000000	63.422657
559.000000	63.377874
558.000000	63.284263
557.000000	63.253071
556.000000	63.206184
555.000000	63.129069
554.000000	63.109385
553.000000	63.064287
552.000000	63.030559
551.000000	63.008359
550.000000	62.904862
549.000000	62.826244
548.000000	62.749876
547.000000	62.713486
546.000000	62.685675
545.000000	62.620847
544.000000	62.593985
543.000000	62.530571
542.000000	62.483084
541.000000	62.431874
540.000000	62.377977
539.000000	62.344297
538.000000	62.331898
537.000000	62.273142
536.000000	62.226512
535.000000	62.146561
534.000000	62.093314
533.000000	62.036804
532.000000	61.993052
531.000000	61.974927
530.000000	61.926272
529.000000	61.862042
528.000000	61.817482
527.000000	61.792333
526.000000	61.741233
525.000000	61.703132
524.000000	61.648817
523.000000	61.594381
522.000000	61.541614
521.000000	61.483691
520.000000	61.438165
519.000000	61.404813
518.000000	61.366916
517.000000	61.297566
516.000000	61.250532
515.000000	61.217076
514.000000	61.142811
513.000000	61.082393
512.000000	61.046328
511.000000	61.010841
510.000000	60.974439
509.000000	60.905485
508.000000	60.846021
507.000000	60.779925
506.000000	60.715888
505.000000	60.679415
504.000000	60.633979
503.000000	60.579143
502.000000	60.500252
501.000000	60.460731
500.000000	60.416148
499.000000	60.340691
498.000000	60.299882
497.000000	60.266416
496.000000	60.186881
495.000000	60.121565
494.000000	60.042346
493.000000	59.957889
492.000000	59.909996
491.000000	59.917609
490.000000	59.869994
489.000000	59.766087
488.000000	59.692014
487.000000	59.651530
486.000000	59.592825
485.000000	59.586926
484.000000	59.519071
483.000000	59.457800
482.000000	59.397641
481.000000	59.320088
480.000000	59.309425
479.000000	59.257888
478.000000	59.191188
477.000000	59.170508
476.000000	59.122584
475.000000	59.049308
474.000000	58.996668
473.000000	58.971754
472.000000	58.890863
471.000000	58.827146
470.000000	58.788105
469.000000	58.743872
468.000000	58.663983
467.000000	58.581032
466.000000	58.526037
465.000000	58.457191
464.000000	58.429886
463.000000	58.410114
462.000000	58.310146
461.000000	58.214069
460.000000	58.135035
459.000000	58.073797
458.000000	58.000864
457.000000	57.933633
456.000000	57.891503
455.000000	57.810140
454.000000	57.694905
453.000000	57.628376
452.000000	57.543118
451.000000	57.472214
450.000000	57.406342
449.000000	57.252970
448.000000	57.187858
447.000000	57.101307
446.000000	57.010606
445.000000	56.861384
444.000000	56.783745
443.000000	56.718584
442.000000	56.690076
441.000000	56.597538
440.000000	56.511960
439.000000	56.415203
438.000000	56.336547
437.000000	56.202269
436.000000	56.127113
435.000000	56.004377
434.000000	55.944128
433.000000	55.840101
432.000000	55.689257
431.000000	55.564973
430.000000	55.497750
429.000000	55.368472
428.000000	55.254161
427.000000	55.114980
426.000000	55.039499
425.000000	54.937529
424.000000	54.777896
423.000000	54.602559
422.000000	54.560627
421.000000	54.385031
420.000000	54.228779
419.000000	54.145436
418.000000	54.030089
417.000000	53.913873
416.000000	53.728541
415.000000	53.558099
414.000000	53.406689
413.000000	53.369086
412.000000	53.100354
411.000000	52.977898
410.000000	52.808988
409.000000	52.701887
408.000000	52.475446
407.000000	52.371192
406.000000	52.162820
405.000000	52.007693
404.000000	51.865133
403.000000	51.691899
402.000000	51.447367
401.000000	51.262244
400.000000	51.137962
399.000000	50.898060
398.000000	50.737857
397.000000	50.528718
396.000000	50.238021
395.000000	50.089865
394.000000	49.874513
393.000000	49.605272
392.000000	49.319094
391.000000	49.125021
390.000000	49.010643
389.000000	48.646621
388.000000	48.447177
387.000000	48.160054
386.000000	47.897111
385.000000	47.640463
384.000000	47.289087
383.000000	47.073228
382.000000	46.777439
381.000000	46.537432
380.000000	46.153016
379.000000	45.837385
378.000000	45.316488
377.000000	45.120574
376.000000	44.614543
375.000000	44.241126
374.000000	43.895695
373.000000	43.412659
372.000000	42.799922
371.000000	42.142482
370.000000	41.593075
369.000000	40.858345
368.000000	40.071564
367.000000	39.182131
366.000000	38.120385
365.000000	37.126838
364.000000	35.766909
363.000000	34.390809
362.000000	32.816482
361.000000	31.085371
360.000000	29.212293
359.000000	27.180219
358.000000	24.939347
357.000000	22.528518
356.000000	20.118711
355.000000	17.587712
354.000000	15.026622
353.000000	12.461971
352.000000	10.062035
351.000000	7.843083
350.000000	5.882364
349.000000	4.226463
348.000000	2.861828
347.000000	1.814705
346.000000	1.077668
345.000000	0.590174
344.000000	0.294346
343.000000	0.132663
342.000000	0.059666
341.000000	0.032739
340.000000	0.022131
339.000000	0.025042
338.000000	0.017125
337.000000	0.016641
336.000000	0.023597
335.000000	0.021699
334.000000	0.022986
333.000000	0.020472
332.000000	0.025738
331.000000	0.027685
330.000000	0.022865
329.000000	0.033006
328.000000	0.033808
327.000000	0.033636
326.000000	0.033405
325.000000	0.034008
