PE UV       SUBTECH     SPECTRUM    ASCII       PEDS        4.00        
   -1
J34.Sample.Raw.asc
18/05/02
11:04:38.00
18/05/02
11:04:38.00
Administrator
longitudinal
325.000000
1
Lambda 850
850L1710193
PerkinElmer UV WinLab 6.4.0.973 / 2.02.06 Lambda 800 UV/VIS, Jan 28 2016 16:58:34

0
0
2
0
0
UV/VIS
1
1
1
RBeamAtt,SBeamAtt,60mm sphere
0
0
0
0
Fix
 
0
0.16
0
0
0
 
 
 
0
 
0
319.2
0
Front
100
 
S:100 R:100
 
0
0
0
 
0
 
 
 
0
 
 
0
0
0
0
0
 
 
 
 
0
0


0
0
#HDR
-1
-1
#GR
nm
%T
1.0
0.0
900.000000
-1.000000
576
8
79.645202
0.013322
#DATA
900.000000	77.152827
899.000000	79.349177
898.000000	75.466383
897.000000	77.186430
896.000000	74.373028
895.000000	76.210012
894.000000	77.321727
893.000000	75.322869
892.000000	72.797047
891.000000	78.643497
890.000000	72.525378
889.000000	75.805370
888.000000	79.645202
887.000000	75.645083
886.000000	78.244359
885.000000	75.159219
884.000000	77.781440
883.000000	78.764825
882.000000	76.562241
881.000000	76.644290
880.000000	76.075804
879.000000	78.124430
878.000000	76.688205
877.000000	72.915192
876.000000	75.688820
875.000000	76.427378
874.000000	74.386806
873.000000	74.304106
872.000000	74.626041
871.000000	77.075560
870.000000	76.303334
869.000000	76.368125
868.000000	75.342034
867.000000	76.695226
866.000000	75.690020
865.000000	77.205444
864.000000	76.658893
863.000000	76.281279
862.000000	75.566523
861.000000	75.443533
860.000000	74.887222
859.000000	74.643747
858.000000	75.026613
857.000000	75.187866
856.000000	75.620353
855.000000	75.067497
854.000000	74.942337
853.000000	75.275163
852.000000	75.258200
851.000000	75.493626
850.000000	75.298970
849.000000	74.770107
848.000000	74.808540
847.000000	74.616844
846.000000	74.547423
845.000000	74.991676
844.000000	74.873561
843.000000	74.475834
842.000000	74.454568
841.000000	74.772560
840.000000	74.906105
839.000000	74.742148
838.000000	74.569001
837.000000	74.438984
836.000000	74.392388
835.000000	74.681214
834.000000	74.552942
833.000000	74.460596
832.000000	74.153924
831.000000	74.216227
830.000000	74.519052
829.000000	74.261805
828.000000	74.178716
827.000000	74.346659
826.000000	74.153474
825.000000	74.067050
824.000000	73.923603
823.000000	73.958188
822.000000	74.005711
821.000000	74.093079
820.000000	74.131620
819.000000	73.992016
818.000000	74.019315
817.000000	74.014805
816.000000	73.959254
815.000000	73.826417
814.000000	73.932677
813.000000	73.729729
812.000000	73.772591
811.000000	73.821571
810.000000	73.838456
809.000000	73.832378
808.000000	73.850298
807.000000	73.737144
806.000000	73.777558
805.000000	73.977151
804.000000	73.967058
803.000000	73.997294
802.000000	73.927823
801.000000	73.905565
800.000000	73.913433
799.000000	73.882089
798.000000	73.994662
797.000000	73.697704
796.000000	73.582365
795.000000	73.754407
794.000000	73.751313
793.000000	73.864531
792.000000	73.863752
791.000000	73.820418
790.000000	73.714769
789.000000	73.683461
788.000000	73.742868
787.000000	73.701633
786.000000	73.623280
785.000000	73.508250
784.000000	73.560886
783.000000	73.537510
782.000000	73.489339
781.000000	73.564882
780.000000	73.565858
779.000000	73.591451
778.000000	73.675206
777.000000	73.668038
776.000000	73.561021
775.000000	73.533865
774.000000	73.562743
773.000000	73.630125
772.000000	73.478760
771.000000	73.340550
770.000000	73.404555
769.000000	73.483764
768.000000	73.519126
767.000000	73.503749
766.000000	73.431955
765.000000	73.416248
764.000000	73.335049
763.000000	73.235874
762.000000	73.207814
761.000000	73.298042
760.000000	73.372386
759.000000	73.452199
758.000000	73.397169
757.000000	73.391172
756.000000	73.439355
755.000000	73.285152
754.000000	73.256374
753.000000	73.208981
752.000000	73.352964
751.000000	73.359069
750.000000	73.259928
749.000000	73.259869
748.000000	73.307107
747.000000	73.251115
746.000000	73.240795
745.000000	73.249451
744.000000	73.199054
743.000000	73.114226
742.000000	73.030179
741.000000	73.056480
740.000000	73.048948
739.000000	73.024762
738.000000	73.076739
737.000000	73.056491
736.000000	73.054369
735.000000	73.024937
734.000000	72.991947
733.000000	73.005671
732.000000	72.956170
731.000000	73.016831
730.000000	73.015207
729.000000	73.031257
728.000000	72.993036
727.000000	72.884956
726.000000	72.829928
725.000000	72.898946
724.000000	72.935707
723.000000	72.881369
722.000000	72.952489
721.000000	72.926669
720.000000	72.948209
719.000000	73.052260
718.000000	72.895260
717.000000	72.843476
716.000000	72.901197
715.000000	72.871464
714.000000	72.804494
713.000000	72.761553
712.000000	72.742110
711.000000	72.687279
710.000000	72.717923
709.000000	72.756903
708.000000	72.717020
707.000000	72.847741
706.000000	72.766193
705.000000	72.725936
704.000000	72.701377
703.000000	72.601563
702.000000	72.623195
701.000000	72.614258
700.000000	72.614468
699.000000	72.595254
698.000000	72.638635
697.000000	72.564643
696.000000	72.547382
695.000000	72.487161
694.000000	72.491580
693.000000	72.473350
692.000000	72.512694
691.000000	72.457596
690.000000	72.340128
689.000000	72.283663
688.000000	72.238323
687.000000	72.278106
686.000000	72.261854
685.000000	72.328423
684.000000	72.239025
683.000000	72.221360
682.000000	72.289232
681.000000	72.185975
680.000000	72.248370
679.000000	72.178366
678.000000	72.141900
677.000000	72.223976
676.000000	72.081180
675.000000	72.187843
674.000000	72.208851
673.000000	72.029055
672.000000	72.101543
671.000000	72.160889
670.000000	72.098607
669.000000	72.072114
668.000000	71.987414
667.000000	71.919196
666.000000	71.943934
665.000000	71.920017
664.000000	72.012971
663.000000	71.945936
662.000000	71.885999
661.000000	71.920328
660.000000	71.922193
659.000000	71.865814
658.000000	71.802975
657.000000	71.834379
656.000000	71.837306
655.000000	71.857209
654.000000	71.797025
653.000000	71.705266
652.000000	71.774056
651.000000	71.673621
650.000000	71.714504
649.000000	71.764658
648.000000	71.740186
647.000000	71.607619
646.000000	71.683746
645.000000	71.636991
644.000000	71.687265
643.000000	71.614351
642.000000	71.605012
641.000000	71.633231
640.000000	71.611259
639.000000	71.595109
638.000000	71.561000
637.000000	71.514036
636.000000	71.496352
635.000000	71.457912
634.000000	71.527306
633.000000	71.472073
632.000000	71.372128
631.000000	71.436307
630.000000	71.404655
629.000000	71.473882
628.000000	71.350544
627.000000	71.427196
626.000000	71.363577
625.000000	71.377913
624.000000	71.284665
623.000000	71.327128
622.000000	71.300193
621.000000	71.251853
620.000000	71.235182
619.000000	71.203282
618.000000	71.169005
617.000000	71.210040
616.000000	71.202335
615.000000	71.123046
614.000000	71.101143
613.000000	71.108564
612.000000	71.096064
611.000000	71.041044
610.000000	71.049953
609.000000	71.070228
608.000000	71.030621
607.000000	70.993213
606.000000	70.954897
605.000000	71.033131
604.000000	70.935911
603.000000	70.921604
602.000000	70.906659
601.000000	70.878692
600.000000	70.837939
599.000000	70.848650
598.000000	70.901888
597.000000	70.823850
596.000000	70.760617
595.000000	70.767517
594.000000	70.758653
593.000000	70.792201
592.000000	70.705289
591.000000	70.697429
590.000000	70.698216
589.000000	70.677238
588.000000	70.605983
587.000000	70.578228
586.000000	70.583913
585.000000	70.601875
584.000000	70.578977
583.000000	70.565702
582.000000	70.588550
581.000000	70.464137
580.000000	70.445679
579.000000	70.465828
578.000000	70.478121
577.000000	70.391100
576.000000	70.432011
575.000000	70.400094
574.000000	70.373659
573.000000	70.340931
572.000000	70.314815
571.000000	70.267018
570.000000	70.189446
569.000000	70.176199
568.000000	70.226160
567.000000	70.166509
566.000000	70.160612
565.000000	70.196982
564.000000	70.175248
563.000000	70.068852
562.000000	70.080962
561.000000	70.088178
560.000000	70.031862
559.000000	70.004720
558.000000	69.982308
557.000000	69.954955
556.000000	69.899798
555.000000	69.895358
554.000000	69.880204
553.000000	69.833821
552.000000	69.863388
551.000000	69.827562
550.000000	69.802054
549.000000	69.777311
548.000000	69.736370
547.000000	69.693086
546.000000	69.669875
545.000000	69.684790
544.000000	69.637596
543.000000	69.589075
542.000000	69.538803
541.000000	69.472403
540.000000	69.496641
539.000000	69.477815
538.000000	69.442957
537.000000	69.436449
536.000000	69.422444
535.000000	69.421179
534.000000	69.347169
533.000000	69.289086
532.000000	69.301849
531.000000	69.288822
530.000000	69.266420
529.000000	69.218906
528.000000	69.175638
527.000000	69.139729
526.000000	69.135466
525.000000	69.121012
524.000000	69.064938
523.000000	69.043731
522.000000	69.004840
521.000000	68.958709
520.000000	68.917473
519.000000	68.886139
518.000000	68.877194
517.000000	68.862601
516.000000	68.830151
515.000000	68.781130
514.000000	68.735439
513.000000	68.699288
512.000000	68.663475
511.000000	68.625707
510.000000	68.585135
509.000000	68.525469
508.000000	68.500747
507.000000	68.475359
506.000000	68.439136
505.000000	68.404674
504.000000	68.332351
503.000000	68.277765
502.000000	68.225968
501.000000	68.169861
500.000000	68.118465
499.000000	68.086003
498.000000	68.040719
497.000000	68.019546
496.000000	68.009851
495.000000	67.947389
494.000000	67.894162
493.000000	67.839854
492.000000	67.814839
491.000000	67.717438
490.000000	67.698650
489.000000	67.662198
488.000000	67.593659
487.000000	67.542817
486.000000	67.496413
485.000000	67.450146
484.000000	67.432689
483.000000	67.402524
482.000000	67.312193
481.000000	67.294323
480.000000	67.259527
479.000000	67.211998
478.000000	67.156347
477.000000	67.087431
476.000000	67.036509
475.000000	66.982480
474.000000	66.963296
473.000000	66.915714
472.000000	66.867969
471.000000	66.801921
470.000000	66.734298
469.000000	66.686632
468.000000	66.646741
467.000000	66.595534
466.000000	66.524246
465.000000	66.472317
464.000000	66.405810
463.000000	66.321785
462.000000	66.263707
461.000000	66.215877
460.000000	66.158018
459.000000	66.083075
458.000000	66.052647
457.000000	66.019839
456.000000	65.865016
455.000000	65.840974
454.000000	65.820341
453.000000	65.694398
452.000000	65.627532
451.000000	65.546892
450.000000	65.483421
449.000000	65.406964
448.000000	65.331050
447.000000	65.222580
446.000000	65.153229
445.000000	65.083986
444.000000	65.011045
443.000000	64.930245
442.000000	64.882077
441.000000	64.819706
440.000000	64.759561
439.000000	64.660985
438.000000	64.553116
437.000000	64.523356
436.000000	64.455396
435.000000	64.270452
434.000000	64.270356
433.000000	64.092356
432.000000	64.006635
431.000000	63.949081
430.000000	63.861334
429.000000	63.768833
428.000000	63.625796
427.000000	63.534403
426.000000	63.368485
425.000000	63.318887
424.000000	63.143869
423.000000	63.055927
422.000000	62.922553
421.000000	62.734382
420.000000	62.683682
419.000000	62.560784
418.000000	62.442421
417.000000	62.295248
416.000000	62.153784
415.000000	62.103613
414.000000	61.841647
413.000000	61.784501
412.000000	61.588893
411.000000	61.396441
410.000000	61.239356
409.000000	61.029428
408.000000	60.919585
407.000000	60.710122
406.000000	60.623256
405.000000	60.346402
404.000000	60.141234
403.000000	59.972310
402.000000	59.679529
401.000000	59.535577
400.000000	59.375622
399.000000	59.179734
398.000000	58.950247
397.000000	58.693880
396.000000	58.467447
395.000000	58.144477
394.000000	57.943398
393.000000	57.673120
392.000000	57.485666
391.000000	57.152762
390.000000	56.847897
389.000000	56.486347
388.000000	56.161690
387.000000	55.991615
386.000000	55.576888
385.000000	55.168701
384.000000	54.851799
383.000000	54.463947
382.000000	54.066475
381.000000	53.686058
380.000000	53.296030
379.000000	52.776544
378.000000	52.167480
377.000000	51.559875
376.000000	50.852285
375.000000	50.310105
374.000000	49.643192
373.000000	48.834554
372.000000	47.960379
371.000000	46.998826
370.000000	45.906346
369.000000	44.686074
368.000000	43.254000
367.000000	41.679758
366.000000	40.023241
365.000000	38.003927
364.000000	35.897703
363.000000	33.532716
362.000000	30.901530
361.000000	28.238991
360.000000	25.407581
359.000000	22.340583
358.000000	19.309925
357.000000	16.271445
356.000000	13.302524
355.000000	10.521899
354.000000	8.016126
353.000000	5.829170
352.000000	4.052126
351.000000	2.637516
350.000000	1.636468
349.000000	0.941428
348.000000	0.487235
347.000000	0.241283
346.000000	0.117587
345.000000	0.066883
344.000000	0.032948
343.000000	0.025975
342.000000	0.022497
341.000000	0.025451
340.000000	0.021479
339.000000	0.013322
338.000000	0.021785
337.000000	0.031149
336.000000	0.028896
335.000000	0.031246
334.000000	0.027287
333.000000	0.043122
332.000000	0.037853
331.000000	0.023518
330.000000	0.033117
329.000000	0.044248
328.000000	0.041391
327.000000	0.025258
326.000000	0.042277
325.000000	0.052695
